MIN=0	-20	-10	
MAX=3200	120	10	
SCALE=3200	50	5	
DEC=0	1	2	
DEF=t / s	"Temperature" ϑ / °C	"Voltage" U_A / mV	
0	21.7361	-0.0306	
1.066	21.7578	-0.03	
1.993	21.7314	-0.03	
2.995	21.746	-0.03	
3.995	21.7804	-0.03	
4.994	21.7538	-0.0306	
5.993	21.756	-0.0306	
6.994	21.7587	-0.0306	
7.994	21.7684	-0.0306	
8.995	21.769	-0.0313	
9.995	21.7607	-0.0313	
10.994	21.761	-0.0313	
11.995	21.7834	-0.0313	
12.994	21.7653	-0.0313	
13.995	21.7661	-0.0313	
14.995	21.7693	-0.0313	
15.994	21.7707	-0.0313	
16.995	21.7984	-0.0306	
17.993	21.7913	-0.0306	
18.993	21.768	-0.0306	
19.993	21.779	-0.0306	
21.053	21.7879	-0.0306	
21.995	21.7915	-0.03	
22.994	21.8139	-0.03	
23.995	21.7921	-0.03	
24.993	21.7958	-0.03	
25.994	21.8006	-0.0294	
26.994	21.8018	-0.0294	
27.993	21.8122	-0.0294	
28.995	21.8062	-0.0288	
29.995	21.8198	-0.0294	
30.993	21.8018	-0.0294	
31.994	21.8002	-0.0288	
32.994	21.8144	-0.0288	
33.993	21.8024	-0.0288	
34.995	21.8391	-0.0288	
35.995	21.8224	-0.0288	
36.993	21.8346	-0.0294	
37.995	21.8309	-0.0288	
38.995	21.8318	-0.0294	
39.995	21.8228	-0.0288	
40.995	21.8297	-0.0281	
41.995	21.8261	-0.0262	
42.995	21.8204	-0.0269	
43.995	21.8352	-0.0275	
44.995	21.8183	-0.0288	
45.995	21.8169	-0.0288	
46.993	21.867	-0.0288	
47.993	21.8506	-0.0288	
48.995	21.826	-0.0288	
49.995	21.8364	-0.0294	
50.995	21.8561	-0.0294	
51.995	21.834	-0.0294	
52.995	21.8696	-0.0294	
53.995	21.8617	-0.0294	
54.995	21.8643	-0.0294	
55.995	21.8452	-0.0294	
56.995	21.8427	-0.0294	
57.995	21.8548	-0.0294	
58.995	21.8866	-0.0294	
59.995	21.9063	-0.0288	
60.995	21.8728	-0.0281	
61.995	21.8733	-0.0275	
62.995	21.8956	-0.0269	
63.995	21.8968	-0.0269	
64.995	21.9054	-0.0275	
65.995	21.9321	-0.0269	
66.995	21.9221	-0.0269	
67.995	21.914	-0.0262	
68.995	21.9265	-0.0262	
69.995	21.9344	-0.0256	
70.995	21.9461	-0.025	
71.995	21.9879	-0.0244	
72.995	21.9826	-0.0244	
73.995	21.9899	-0.0237	
74.995	21.9675	-0.0231	
75.995	22.0052	-0.0225	
76.995	22.0046	-0.0225	
77.995	22.0309	-0.0225	
78.995	22.0373	-0.0225	
79.995	22.0548	-0.0225	
80.995	22.0583	-0.0225	
81.995	22.0703	-0.0219	
82.995	22.1047	-0.0219	
83.995	22.127	-0.0219	
84.995	22.1535	-0.0219	
85.995	22.1569	-0.0219	
86.995	22.1583	-0.0219	
87.995	22.1816	-0.0219	
88.995	22.2341	-0.0213	
89.995	22.2093	-0.0213	
90.995	22.2636	-0.0213	
91.995	22.291	-0.0213	
92.995	22.3054	-0.0213	
93.995	22.3361	-0.0206	
94.995	22.3913	-0.02	
95.995	22.3766	-0.02	
96.995	22.4157	-0.02	
97.995	22.4616	-0.02	
98.995	22.4711	-0.02	
99.995	22.5106	-0.02	
100.995	22.5606	-0.0194	
101.995	22.5737	-0.0194	
102.995	22.6154	-0.0188	
103.995	22.6386	-0.0188	
104.995	22.6893	-0.0188	
105.995	22.7236	-0.0181	
106.995	22.7738	-0.0181	
107.995	22.815	-0.0181	
108.995	22.8383	-0.0175	
109.995	22.8955	-0.0175	
110.995	22.9326	-0.0175	
111.995	22.9874	-0.0175	
112.995	23.0179	-0.0175	
113.995	23.0856	-0.0169	
114.995	23.0942	-0.0169	
115.995	23.1685	-0.0169	
116.995	23.1976	-0.0169	
117.995	23.2618	-0.0169	
118.995	23.3167	-0.0169	
119.995	23.357	-0.0169	
120.995	23.4038	-0.0169	
121.995	23.4608	-0.0169	
122.995	23.5066	-0.0175	
123.995	23.5604	-0.0175	
124.995	23.6306	-0.0175	
125.995	23.6976	-0.0175	
126.995	23.7338	-0.0175	
127.995	23.7973	-0.0175	
128.995	23.8456	-0.0175	
129.995	23.91	-0.0175	
130.995	23.9715	-0.0175	
131.995	24.0359	-0.0175	
132.995	24.1177	-0.0169	
133.995	24.1826	-0.0169	
134.995	24.2243	-0.0169	
135.995	24.3053	-0.0162	
136.995	24.3712	-0.0162	
137.995	24.4484	-0.0156	
138.995	24.5303	-0.015	
139.995	24.6295	-0.015	
140.995	24.672	-0.0144	
141.995	24.7478	-0.0144	
142.993	24.8165	-0.0144	
143.993	24.9216	-0.0137	
144.993	25.0033	-0.0137	
145.993	25.0744	-0.0131	
146.993	25.1591	-0.0131	
147.993	25.2366	-0.0125	
148.993	25.3477	-0.0125	
149.993	25.4069	-0.0119	
150.993	25.5229	-0.0112	
151.993	25.5724	-0.0112	
152.993	25.6638	-0.01	
153.993	25.7662	-0.0094	
154.993	25.8386	-0.0088	
155.993	25.9503	-0.0081	
156.993	26.0607	-0.0075	
157.993	26.1441	-0.0063	
158.993	26.248	-0.005	
159.993	26.3323	-0.0031	
160.993	26.4207	-0.0025	
161.993	26.5592	-0.0013	
162.993	26.645	-0.0006	
163.993	26.7924	-0.0006	
164.993	26.8629	0	
165.993	26.9648	0.0006	
166.993	27.0831	0.0006	
167.993	27.1713	0.0013	
168.993	27.2819	0.0013	
169.993	27.4153	0.0019	
170.993	27.5182	0.0019	
171.993	27.6127	0.0019	
172.993	27.7428	0.0019	
173.993	27.8497	0.0019	
174.993	27.9875	0.0019	
175.993	28.1195	0.0019	
176.993	28.2123	0.0019	
177.993	28.3077	0.0019	
178.993	28.433	0.0019	
179.993	28.5684	0.0025	
180.993	28.6432	0.0025	
181.993	28.8119	0.0031	
182.993	28.9169	0.0031	
183.993	29.0343	0.0038	
184.993	29.1639	0.0038	
185.993	29.2924	0.0044	
186.993	29.407	0.005	
187.993	29.578	0.005	
188.993	29.6954	0.0056	
189.993	29.8239	0.0063	
190.993	29.9435	0.0063	
191.993	30.0507	0.0069	
192.993	30.1794	0.0075	
193.993	30.3529	0.0081	
194.993	30.4753	0.0088	
195.993	30.6385	0.0088	
196.993	30.7499	0.0094	
197.993	30.8943	0.0094	
198.993	31.0083	0.01	
199.993	31.1989	0.0106	
200.993	31.3298	0.0106	
201.994	31.4557	0.0112	
202.994	31.5964	0.0119	
203.994	31.738	0.0119	
204.994	31.8776	0.0131	
205.994	32.0302	0.0131	
206.994	32.1897	0.0144	
207.994	32.3119	0.015	
208.994	32.4336	0.0156	
209.994	32.5531	0.0169	
210.994	32.6609	0.0175	
211.994	32.8127	0.0181	
212.994	32.9496	0.0188	
213.994	33.0928	0.0188	
214.994	33.2301	0.0194	
215.994	33.371	0.0194	
216.994	33.5236	0.02	
217.994	33.6843	0.02	
218.994	33.8265	0.0206	
219.994	33.9824	0.0206	
220.994	34.1293	0.0213	
221.994	34.2806	0.0213	
222.994	34.4499	0.0213	
223.994	34.6112	0.0219	
224.994	34.7745	0.0219	
225.994	34.915	0.0225	
226.994	35.0836	0.0225	
227.994	35.2396	0.0231	
228.994	35.4027	0.0237	
229.994	35.555	0.0237	
230.994	35.7455	0.0244	
231.994	35.9005	0.0244	
232.994	36.0767	0.025	
233.994	36.2251	0.0256	
234.994	36.4105	0.0262	
235.994	36.5556	0.0269	
236.994	36.7432	0.0275	
237.994	36.9095	0.0275	
238.994	37.0875	0.0275	
239.994	37.2908	0.0281	
240.994	37.467	0.0288	
241.994	37.6823	0.0294	
242.994	37.8485	0.03	
243.994	38.035	0.0306	
244.994	38.2153	0.0313	
245.994	38.3987	0.0325	
246.994	38.5602	0.0331	
247.994	38.7341	0.0344	
248.994	38.8669	0.0356	
249.994	39.025	0.0362	
250.994	39.1647	0.0369	
251.994	39.3493	0.0381	
252.994	39.5205	0.0381	
253.994	39.7151	0.0394	
254.994	39.8773	0.04	
255.994	40.0551	0.0406	
256.994	40.2036	0.0412	
257.994	40.38	0.0425	
258.994	40.5555	0.0438	
259.994	40.727	0.0444	
260.994	40.9431	0.0456	
261.994	41.1169	0.0469	
262.994	41.2787	0.0475	
263.994	41.441	0.0488	
264.994	41.6248	0.0494	
265.994	41.8407	0.0506	
266.994	42.0497	0.0512	
267.994	42.2322	0.0525	
268.994	42.4126	0.0538	
269.994	42.5645	0.0544	
270.994	42.764	0.0556	
271.994	42.9458	0.0563	
272.994	43.1808	0.0569	
273.994	43.3833	0.0575	
274.994	43.5625	0.0587	
275.994	43.7249	0.0594	
276.994	43.9412	0.06	
277.994	44.126	0.0606	
278.994	44.3353	0.0619	
279.994	44.5426	0.0631	
280.994	44.7377	0.0637	
281.994	44.9087	0.0644	
282.994	45.0681	0.0656	
283.995	45.2767	0.0669	
284.995	45.4823	0.0675	
285.995	45.6938	0.0681	
286.995	45.9257	0.0694	
287.995	46.091	0.07	
288.995	46.289	0.0706	
289.995	46.4953	0.0712	
290.995	46.7185	0.0725	
291.995	46.9158	0.0738	
292.995	47.1262	0.0744	
293.995	47.3351	0.0756	
294.995	47.5392	0.0763	
295.995	47.7379	0.0769	
296.995	47.9786	0.0775	
297.995	48.2409	0.0781	
298.995	48.4735	0.0787	
299.995	48.6881	0.0794	
300.995	48.8913	0.08	
301.995	49.0975	0.0812	
302.995	49.3112	0.0819	
303.995	49.5231	0.0831	
304.995	49.7681	0.0838	
305.995	49.9661	0.0844	
306.995	50.1649	0.085	
307.995	50.3879	0.0862	
308.995	50.5989	0.0869	
309.995	50.8033	0.0881	
310.995	51.0439	0.0894	
311.995	51.2227	0.09	
312.995	51.445	0.0913	
313.995	51.6484	0.0925	
314.995	51.8859	0.0931	
315.995	52.0862	0.0944	
316.995	52.3309	0.0956	
317.995	52.5594	0.0962	
318.995	52.7466	0.0969	
319.995	52.9815	0.0981	
320.995	53.1963	0.0988	
321.995	53.4349	0.0994	
322.995	53.6546	0.1	
323.995	53.886	0.1006	
324.995	54.0894	0.1019	
325.995	54.3336	0.1025	
326.995	54.5609	0.1037	
327.995	54.7906	0.105	
328.995	55.0191	0.1063	
329.995	55.2551	0.1069	
330.995	55.46	0.1081	
331.995	55.675	0.1088	
332.995	55.9076	0.11	
333.995	56.1462	0.1106	
334.995	56.4042	0.1119	
335.995	56.6003	0.1131	
336.995	56.8186	0.1144	
337.995	57.0546	0.1156	
338.995	57.2776	0.1163	
339.995	57.5022	0.1169	
340.995	57.7478	0.1181	
341.995	57.9788	0.1187	
342.995	58.1911	0.1194	
343.995	58.4522	0.12	
344.995	58.6723	0.1206	
345.995	58.9232	0.1219	
346.995	59.1525	0.1225	
347.995	59.3742	0.1238	
348.995	59.6216	0.125	
349.995	59.8528	0.1263	
350.995	60.0842	0.1269	
351.995	60.3638	0.1281	
352.995	60.6081	0.1287	
353.995	60.7977	0.1294	
354.995	61.0244	0.1306	
355.995	61.2146	0.1319	
356.995	61.4245	0.1331	
357.995	61.6257	0.1344	
358.995	61.8591	0.135	
359.995	62.072	0.1363	
360.995	62.2835	0.1369	
361.995	62.5104	0.1381	
362.995	62.7188	0.1388	
363.995	62.9505	0.14	
364.995	63.184	0.1412	
365.995	63.4023	0.1431	
366.995	63.6151	0.145	
367.995	63.8586	0.1462	
368.995	64.103	0.1469	
369.995	64.3331	0.1481	
370.995	64.5681	0.1494	
371.995	64.813	0.15	
372.995	65.0187	0.1513	
373.995	65.2613	0.1519	
374.995	65.4932	0.1525	
375.995	65.7233	0.1531	
376.995	65.9771	0.1538	
377.995	66.2407	0.155	
378.995	66.4572	0.1556	
379.995	66.7044	0.1562	
380.995	66.9414	0.1575	
381.995	67.1786	0.1581	
382.995	67.4296	0.1594	
383.995	67.682	0.1606	
384.995	67.9009	0.1619	
385.995	68.1249	0.1631	
386.995	68.3777	0.1644	
387.994	68.6243	0.1656	
388.994	68.8649	0.1669	
389.994	69.1471	0.1681	
391.024	69.3589	0.1688	
391.994	69.5919	0.1694	
392.994	69.8279	0.1694	
393.995	70.068	0.17	
394.995	70.3345	0.1706	
395.995	70.5953	0.1713	
396.994	70.826	0.1713	
398.001	71.0528	0.1706	
399.007	71.3018	0.1713	
400.041	71.5839	0.1719	
400.994	71.8262	0.1719	
401.994	72.0764	0.1719	
402.993	72.3213	0.1719	
403.995	72.6895	0.1719	
404.995	72.9796	0.1719	
405.993	73.2062	0.1725	
406.993	73.4561	0.1731	
407.993	73.7002	0.1744	
408.994	74.0007	0.1756	
409.994	74.1977	0.1775	
411.004	74.4554	0.1788	
411.995	74.7109	0.18	
412.994	74.9613	0.1819	
413.993	75.2139	0.1838	
414.993	75.4557	0.1863	
415.993	75.6936	0.1881	
416.993	75.9504	0.19	
417.993	76.2426	0.1925	
418.993	76.4561	0.195	
419.993	76.7296	0.1975	
420.993	76.9754	0.1987	
421.993	77.2173	0.2	
422.993	77.4802	0.2013	
423.993	77.7806	0.2019	
424.993	77.9832	0.2025	
425.993	78.2378	0.2037	
426.993	78.5392	0.205	
427.993	78.7469	0.2063	
428.993	79.0237	0.2075	
429.993	79.3091	0.2094	
430.993	79.5469	0.2106	
431.993	79.8067	0.2119	
432.993	80.0352	0.2144	
433.993	80.3097	0.2169	
434.993	80.5722	0.2194	
435.993	80.8367	0.2212	
436.993	81.1043	0.2238	
437.993	81.3447	0.2262	
438.993	81.5655	0.2288	
439.993	81.8228	0.2306	
440.993	82.0776	0.2325	
441.993	82.3344	0.235	
442.993	82.6134	0.2369	
443.993	82.8724	0.2381	
444.993	83.1156	0.2394	
445.993	83.3545	0.2406	
446.993	83.6296	0.2419	
447.993	83.8999	0.2431	
448.993	84.1784	0.2444	
449.993	84.4266	0.2456	
450.993	84.695	0.2469	
451.993	84.9711	0.2481	
452.993	85.2035	0.2494	
453.993	85.4511	0.2513	
454.993	85.7479	0.2525	
455.993	86.0061	0.2537	
456.993	86.2461	0.2556	
457.993	86.5187	0.2562	
458.993	86.7898	0.2569	
459.993	87.031	0.2575	
460.993	87.2964	0.2575	
461.993	87.5364	0.2575	
462.993	87.7997	0.2562	
463.993	88.0496	0.2556	
464.993	88.3388	0.255	
465.993	88.5634	0.2544	
466.993	88.8274	0.2544	
467.993	89.1176	0.255	
468.993	89.3917	0.2556	
469.993	89.6263	0.2575	
470.993	89.8933	0.2587	
471.993	90.149	0.2606	
472.993	90.4032	0.2631	
473.993	90.7127	0.2656	
474.993	90.9815	0.2681	
475.993	91.228	0.2706	
476.993	91.4583	0.2731	
477.993	91.7203	0.2756	
478.993	91.9382	0.2775	
479.993	92.2608	0.2794	
480.993	92.5323	0.2806	
481.993	92.7753	0.2819	
482.993	93.01	0.2831	
483.993	93.2623	0.285	
484.993	93.4861	0.2862	
485.993	93.752	0.2875	
486.993	94.0466	0.2888	
487.993	94.289	0.29	
488.993	94.5272	0.2906	
489.993	94.7778	0.2906	
490.993	95.034	0.2912	
491.993	95.2794	0.2931	
492.993	95.5637	0.295	
493.993	95.8149	0.2963	
494.993	96.0392	0.2969	
495.993	96.3004	0.2975	
496.993	96.6309	0.2981	
497.993	96.8757	0.2981	
498.993	97.1317	0.2994	
499.993	97.3843	0.2994	
500.993	97.6243	0.3006	
501.993	97.8807	0.3013	
502.993	98.0969	0.3025	
503.993	98.3577	0.3031	
504.993	98.6027	0.3044	
505.993	98.8202	0.3056	
506.993	99.0791	0.3069	
507.993	99.2827	0.3081	
508.993	99.5145	0.31	
509.993	99.7349	0.3125	
510.993	99.9723	0.3144	
511.993	100.2443	0.3169	
512.993	100.4845	0.3187	
513.993	100.7055	0.32	
514.993	100.9569	0.3213	
515.993	101.1508	0.3225	
516.993	101.4024	0.3238	
517.993	101.6476	0.325	
518.993	101.8818	0.3263	
519.993	102.0793	0.3281	
520.993	102.3438	0.33	
521.993	102.5605	0.3325	
522.993	102.8015	0.335	
523.993	103.0175	0.3375	
524.993	103.234	0.3394	
525.993	103.4587	0.3413	
526.993	103.7045	0.3438	
527.993	103.9127	0.3469	
528.993	104.1144	0.35	
529.993	104.3698	0.3531	
530.993	104.5599	0.3556	
531.993	104.7531	0.3575	
532.993	104.9896	0.3594	
533.993	105.2059	0.3613	
534.993	105.4144	0.3631	
535.993	105.6088	0.3656	
536.993	105.8265	0.3675	
537.993	106.0208	0.3694	
538.993	106.2437	0.3713	
539.993	106.4644	0.3738	
540.993	106.6554	0.3756	
541.993	106.8681	0.3775	
542.993	107.0799	0.3787	
543.993	107.2443	0.38	
544.993	107.4357	0.3812	
545.993	107.6924	0.3831	
546.993	107.8811	0.3844	
547.993	108.0846	0.3856	
548.993	108.2763	0.3862	
549.993	108.4644	0.385	
550.993	108.6703	0.3838	
551.993	108.895	0.3831	
552.993	109.0744	0.3825	
553.993	109.2863	0.3825	
554.993	109.4784	0.3831	
555.993	109.6602	0.3838	
556.993	109.8277	0.385	
557.993	109.9926	0.3869	
558.993	110.2023	0.3887	
559.993	110.4024	0.39	
560.993	110.5913	0.3919	
561.993	110.7762	0.3956	
562.993	110.955	0.3975	
563.993	111.1261	0.3975	
564.993	111.3199	0.3981	
565.993	111.4853	0.3994	
566.994	111.662	0.4006	
567.994	111.8191	0.4013	
568.994	111.977	0.4025	
569.994	112.1448	0.4038	
570.994	112.369	0.4044	
571.994	112.5374	0.405	
572.994	112.7045	0.4038	
573.994	112.8708	0.4019	
574.994	113.0229	0.4013	
575.994	113.1889	0.4019	
576.994	113.3816	0.4031	
577.994	113.5428	0.4044	
578.994	113.7224	0.4062	
579.994	113.8944	0.4087	
580.994	114.0503	0.4113	
581.994	114.2056	0.4144	
582.994	114.3413	0.4169	
583.994	114.5224	0.4188	
584.994	114.7069	0.4206	
585.994	114.8202	0.4231	
586.994	115.0002	0.4256	
587.994	115.1496	0.4275	
588.994	115.2944	0.43	
589.994	115.4606	0.4325	
590.994	115.6596	0.435	
591.994	115.7653	0.4369	
592.994	115.942	0.4388	
593.994	116.0652	0.44	
594.994	116.2336	0.4412	
595.994	116.3781	0.4425	
596.994	116.5261	0.4431	
597.994	116.6613	0.4425	
598.994	116.8342	0.4419	
599.994	116.9582	0.4412	
600.994	117.1182	0.4406	
601.994	117.2599	0.4406	
602.994	117.404	0.4406	
603.994	117.5714	0.4406	
604.994	117.6845	0.4406	
605.994	117.831	0.4419	
606.994	117.9277	0.4431	
607.994	118.0692	0.445	
608.994	118.2163	0.4463	
609.994	118.338	0.4481	
610.994	118.479	0.4488	
611.994	118.6253	0.45	
612.994	118.7593	0.4506	
613.994	118.8868	0.4519	
614.994	119.0114	0.4531	
615.994	119.153	0.4537	
616.994	119.283	0.455	
617.994	119.4249	0.4563	
618.994	119.5411	0.4575	
619.994	119.6493	0.4588	
620.994	119.8087	0.4606	
621.994	119.9199	0.4625	
622.994	120.0337	0.4644	
623.994	120.1931	0.4663	
624.994	120.3202	0.4681	
625.994	120.4431	0.47	
626.994	120.5361	0.4713	
627.994	120.6714	0.4725	
628.994	120.783	0.4737	
629.994	120.9155	0.4756	
630.994	121.0757	0.4769	
631.994	121.2135	0.4787	
632.994	121.3249	0.48	
633.994	121.4597	0.4819	
634.994	121.563	0.4837	
635.994	121.6661	0.485	
636.994	121.8017	0.4856	
637.994	121.9102	0.4869	
638.994	122.0396	0.4881	
639.994	122.1517	0.4888	
640.994	122.2566	0.4894	
641.994	122.352	0.4906	
642.994	122.4719	0.4919	
643.994	122.6062	0.4931	
644.994	122.719	0.495	
645.994	122.8169	0.4963	
646.994	122.9035	0.4981	
647.994	123.0045	0.4994	
648.994	123.1459	0.5006	
649.994	123.2471	0.5025	
650.994	123.3594	0.5038	
651.994	123.4748	0.505	
652.994	123.5321	0.5063	
653.994	123.6451	0.5075	
654.994	123.7661	0.5088	
655.994	123.8731	0.51	
656.993	123.9525	0.5113	
657.993	124.0585	0.5125	
658.994	124.1462	0.5144	
659.994	124.2354	0.5169	
660.994	124.2965	0.5169	
661.993	124.4329	0.5175	
662.993	124.5274	0.5175	
663.993	124.6422	0.5175	
664.993	124.7152	0.5181	
665.993	124.8059	0.5181	
666.993	124.9142	0.5187	
667.994	125.0204	0.5194	
668.994	125.0973	0.52	
669.993	125.2144	0.5213	
670.993	125.2837	0.5225	
671.993	125.3523	0.5238	
672.994	125.4421	0.5256	
673.993	125.562	0.5269	
674.993	125.646	0.5281	
675.994	125.7423	0.5294	
676.993	125.8103	0.5306	
677.993	125.9244	0.5325	
678.993	125.9702	0.5337	
679.994	126.0822	0.535	
680.994	126.1514	0.5362	
681.993	126.2596	0.5369	
682.994	126.3364	0.5381	
683.994	126.4139	0.5394	
684.993	126.4865	0.54	
685.993	126.5828	0.54	
686.993	126.6656	0.5406	
687.993	126.7292	0.5412	
688.994	126.8099	0.5412	
689.993	126.9056	0.5406	
690.993	126.9801	0.5406	
691.993	127.0498	0.5406	
692.993	127.1298	0.54	
693.994	127.1984	0.54	
694.993	127.3047	0.54	
695.993	127.3834	0.54	
696.993	127.4447	0.5406	
697.993	127.5037	0.5406	
698.993	127.5971	0.5412	
699.993	127.6651	0.5425	
700.994	127.7144	0.5438	
701.993	127.827	0.545	
702.994	127.8771	0.5463	
703.993	127.9471	0.5475	
704.993	128.0466	0.5488	
705.994	128.0979	0.55	
706.993	128.1639	0.5513	
707.993	128.2634	0.5531	
708.993	128.3124	0.5544	
709.994	128.3784	0.5556	
710.993	128.4311	0.5569	
711.993	128.5255	0.5575	
712.994	128.576	0.5588	
713.994	128.6407	0.5594	
714.993	128.7172	0.56	
715.993	128.7747	0.5606	
716.993	128.8174	0.5619	
717.993	128.8968	0.5619	
718.993	128.9407	0.5619	
719.993	129.0303	0.5606	
720.994	129.1283	0.56	
721.993	129.1394	0.5588	
722.993	129.245	0.5581	
723.994	129.2936	0.5575	
724.993	129.3456	0.5563	
725.994	129.4113	0.555	
726.993	129.4865	0.5538	
727.993	129.5132	0.5531	
728.993	129.5721	0.5531	
729.993	129.6437	0.5544	
730.993	129.6927	0.5556	
731.993	129.7667	0.5569	
732.993	129.8241	0.5581	
733.993	129.8784	0.5594	
734.993	129.9317	0.5606	
735.993	129.9969	0.5612	
736.993	130.0286	0.5625	
737.993	130.119	0.5631	
738.993	130.1412	0.5637	
739.993	130.204	0.5644	
740.993	130.2521	0.565	
741.993	130.3086	0.5663	
742.993	130.3697	0.5669	
743.993	130.4026	0.5681	
744.993	130.464	0.5694	
745.993	130.5136	0.5706	
746.993	130.5667	0.5706	
747.993	130.6063	0.5694	
748.993	130.6526	0.5694	
749.993	130.7307	0.5694	
750.993	130.7599	0.57	
751.993	130.8144	0.5706	
752.993	130.8618	0.5719	
753.993	130.8928	0.5731	
754.993	130.9332	0.5744	
755.993	130.9926	0.575	
756.993	131.025	0.5763	
757.993	131.06	0.5775	
758.993	131.1414	0.5788	
759.993	131.1695	0.5794	
760.993	131.214	0.5813	
761.993	131.272	0.5825	
762.993	131.3147	0.5844	
763.993	131.3351	0.5863	
764.993	131.4174	0.5875	
765.993	131.4761	0.5888	
766.993	131.498	0.59	
767.993	131.5454	0.5919	
768.993	131.5566	0.5925	
769.993	131.5919	0.5944	
770.993	131.6538	0.5956	
771.993	131.6981	0.5962	
772.993	131.7364	0.5975	
773.993	131.7755	0.5981	
774.993	131.8134	0.5988	
775.993	131.8354	0.5994	
776.993	131.8824	0.6	
777.993	131.9411	0.6006	
778.993	131.9776	0.6019	
779.993	132.0248	0.6025	
780.993	132.0694	0.6031	
781.993	132.0709	0.6044	
782.993	132.0994	0.605	
783.993	132.1489	0.6056	
784.993	132.1793	0.6069	
785.993	132.2211	0.6075	
786.993	132.2693	0.6081	
787.993	132.2837	0.6094	
788.993	132.3171	0.6094	
789.993	132.3607	0.6106	
790.993	132.4089	0.6112	
791.993	132.4336	0.6119	
792.993	132.4633	0.6125	
793.993	132.4811	0.6137	
794.993	132.5241	0.6144	
795.993	132.5542	0.6156	
796.993	132.5896	0.6156	
797.993	132.6175	0.6169	
798.993	132.6811	0.6169	
799.993	132.7007	0.6181	
800.993	132.7243	0.6181	
801.994	132.7646	0.6187	
802.994	132.8027	0.6194	
803.994	132.8439	0.62	
804.994	132.8447	0.6206	
805.994	132.8916	0.6219	
806.994	132.9199	0.6225	
807.994	132.9503	0.6225	
808.994	132.9686	0.6231	
809.994	133.0214	0.6238	
810.994	133.0433	0.6244	
811.994	133.0826	0.625	
812.994	133.0846	0.625	
813.994	133.1087	0.6256	
814.994	133.1406	0.6256	
815.994	133.1664	0.6262	
816.994	133.1872	0.6269	
817.994	133.2308	0.6269	
818.994	133.242	0.6275	
819.994	133.2618	0.6281	
820.994	133.2792	0.6281	
821.994	133.293	0.6288	
822.994	133.3574	0.6288	
823.994	133.3742	0.6294	
824.994	133.3767	0.63	
825.994	133.4066	0.6306	
826.994	133.4434	0.6313	
827.994	133.4444	0.6319	
828.994	133.4868	0.6319	
829.994	133.5017	0.6331	
830.994	133.5126	0.6338	
831.994	133.5487	0.6338	
832.994	133.5511	0.6344	
833.994	133.5831	0.635	
834.994	133.5904	0.6356	
835.994	133.6077	0.6363	
836.994	133.6581	0.6369	
837.994	133.6699	0.6375	
838.994	133.6914	0.6381	
839.994	133.7115	0.6381	
840.994	133.7341	0.6387	
841.994	133.7547	0.6394	
842.994	133.7817	0.64	
843.994	133.7614	0.64	
844.994	133.785	0.64	
845.994	133.8338	0.6406	
846.994	133.8544	0.6406	
847.994	133.8516	0.6413	
848.994	133.8867	0.6413	
849.994	133.8999	0.6413	
850.994	133.9183	0.6419	
851.994	133.9213	0.6425	
852.994	133.9651	0.6431	
853.994	133.9418	0.6431	
854.994	133.9916	0.6438	
855.994	134.0053	0.6438	
856.994	134.0137	0.6444	
857.994	134.0437	0.645	
858.994	134.0547	0.645	
859.994	134.0576	0.6456	
860.994	134.0975	0.6463	
861.994	134.1147	0.6463	
862.994	134.1219	0.6469	
863.994	134.1373	0.6469	
864.994	134.16	0.6475	
865.994	134.1746	0.6475	
866.994	134.1822	0.6481	
867.994	134.1971	0.6481	
868.994	134.2036	0.6488	
869.994	134.2085	0.6488	
870.994	134.218	0.6494	
871.994	134.2389	0.65	
872.994	134.2569	0.65	
873.994	134.2685	0.6506	
874.994	134.265	0.6506	
875.994	134.2802	0.6513	
876.994	134.2921	0.6513	
877.994	134.3152	0.6513	
878.994	134.3316	0.6519	
879.994	134.3301	0.6519	
880.994	134.3391	0.6519	
881.994	134.3643	0.6525	
882.994	134.3543	0.6525	
883.994	134.3521	0.6525	
884.994	134.3996	0.6531	
885.994	134.3844	0.6531	
886.994	134.3857	0.6538	
887.994	134.3905	0.6544	
888.994	134.3988	0.6544	
889.994	134.4276	0.655	
890.994	134.4557	0.655	
891.994	134.4318	0.6556	
892.994	134.4489	0.6562	
893.994	134.4545	0.6562	
894.994	134.4875	0.6569	
895.994	134.4755	0.6569	
896.994	134.4812	0.6575	
897.994	134.4797	0.6575	
898.994	134.4849	0.6575	
899.994	134.4735	0.6581	
900.994	134.49	0.6581	
901.994	134.5137	0.6587	
902.994	134.5384	0.6587	
903.994	134.5343	0.6587	
904.994	134.5306	0.6594	
905.994	134.5383	0.6594	
906.994	134.5615	0.6594	
907.994	134.5589	0.6594	
908.994	134.5521	0.6594	
909.994	134.5685	0.6594	
910.994	134.5691	0.66	
911.994	134.56	0.66	
912.994	134.5663	0.66	
913.994	134.5758	0.66	
914.994	134.592	0.6606	
915.994	134.6083	0.66	
916.994	134.5734	0.6606	
917.994	134.5811	0.6606	
918.994	134.5883	0.6606	
919.994	134.5689	0.6606	
920.994	134.5759	0.6606	
921.994	134.6224	0.6612	
922.994	134.6017	0.6612	
923.994	134.5773	0.6612	
924.994	134.6088	0.6612	
925.994	134.5905	0.6612	
926.994	134.6338	0.6619	
927.994	134.6474	0.6619	
928.994	134.6003	0.6619	
929.994	134.6253	0.6619	
930.994	134.6069	0.6619	
931.994	134.6306	0.6625	
932.994	134.6428	0.6625	
933.994	134.6215	0.6625	
934.994	134.6179	0.6631	
935.994	134.622	0.6637	
936.994	134.6433	0.6637	
937.994	134.6147	0.6644	
938.994	134.6166	0.6644	
939.994	134.6347	0.665	
940.994	134.628	0.665	
941.994	134.6075	0.6656	
942.994	134.611	0.6656	
943.994	134.61	0.6662	
944.994	134.6357	0.6662	
945.994	134.6129	0.6662	
946.994	134.6146	0.6662	
947.994	134.6035	0.6669	
948.994	134.5853	0.6669	
949.994	134.6066	0.6669	
950.994	134.6154	0.6669	
951.994	134.596	0.6675	
952.994	134.6006	0.6675	
953.994	134.5978	0.6675	
954.994	134.5853	0.6675	
955.994	134.5881	0.6675	
956.994	134.5887	0.6675	
957.994	134.5737	0.6681	
958.994	134.5926	0.6681	
959.994	134.5919	0.6681	
960.994	134.582	0.6681	
961.994	134.5593	0.6681	
962.994	134.5657	0.6681	
963.994	134.5723	0.6681	
964.994	134.5651	0.6688	
965.994	134.5518	0.6688	
966.994	134.5593	0.6688	
967.994	134.546	0.6688	
968.994	134.548	0.6688	
969.994	134.5515	0.6688	
970.994	134.5125	0.6688	
971.994	134.5292	0.6688	
972.994	134.5411	0.6694	
973.994	134.5157	0.6694	
974.995	134.4999	0.6688	
975.995	134.5204	0.6694	
976.995	134.5162	0.6688	
977.995	134.4821	0.6688	
978.995	134.4734	0.6688	
979.995	134.4931	0.6688	
980.995	134.4624	0.6688	
981.995	134.4792	0.6688	
982.995	134.4821	0.6688	
983.995	134.4608	0.6688	
984.995	134.4481	0.6694	
985.995	134.4635	0.6694	
986.995	134.4317	0.6694	
987.995	134.4268	0.6694	
988.995	134.4043	0.6694	
989.995	134.3845	0.6694	
990.995	134.3974	0.6694	
991.995	134.3652	0.6694	
992.995	134.368	0.6694	
993.995	134.3693	0.6688	
994.995	134.3522	0.6688	
995.995	134.3331	0.6681	
996.995	134.3194	0.6681	
997.995	134.3036	0.6681	
998.995	134.2859	0.6681	
999.995	134.3368	0.6681	
1000.995	134.2901	0.6681	
1001.995	134.2816	0.6688	
1002.995	134.2688	0.6688	
1003.995	134.2561	0.6688	
1004.995	134.2581	0.6681	
1005.995	134.2613	0.6681	
1006.995	134.2611	0.6681	
1007.995	134.2093	0.6681	
1008.995	134.2057	0.6688	
1009.995	134.2037	0.6681	
1010.995	134.2098	0.6681	
1011.995	134.1831	0.6681	
1012.995	134.1754	0.6681	
1013.995	134.1545	0.6681	
1014.995	134.1334	0.6681	
1015.995	134.1444	0.6675	
1016.995	134.1294	0.6675	
1017.995	134.1216	0.6669	
1018.995	134.1458	0.6669	
1019.995	134.101	0.6662	
1020.995	134.0918	0.6656	
1021.995	134.0771	0.6656	
1022.995	134.0726	0.665	
1023.9949	134.0419	0.665	
1024.995	134.0631	0.6644	
1025.995	134.028	0.6637	
1026.995	134.0193	0.6631	
1027.995	134.0152	0.6619	
1028.995	134.0051	0.6619	
1029.995	134.0033	0.6612	
1030.995	133.997	0.6612	
1031.995	133.9728	0.6612	
1032.995	133.9676	0.6612	
1033.995	133.9246	0.6612	
1034.995	133.9392	0.6612	
1035.995	133.9255	0.6612	
1036.995	133.8938	0.6619	
1037.995	133.8837	0.6619	
1038.995	133.895	0.6625	
1039.995	133.869	0.6631	
1040.995	133.8607	0.6631	
1041.995	133.8548	0.6637	
1042.995	133.8441	0.6637	
1043.995	133.8344	0.6637	
1044.995	133.82	0.6637	
1045.995	133.8032	0.6637	
1046.995	133.7677	0.6637	
1047.995	133.8019	0.6637	
1048.995	133.7748	0.6637	
1049.995	133.7412	0.6631	
1050.995	133.7462	0.6631	
1051.995	133.71	0.6631	
1052.995	133.6945	0.6625	
1053.995	133.6869	0.6619	
1054.995	133.6697	0.6619	
1055.995	133.6473	0.6619	
1056.995	133.6528	0.6619	
1057.995	133.6174	0.6625	
1058.995	133.6012	0.6625	
1059.995	133.5824	0.6637	
1060.995	133.5996	0.6637	
1061.995	133.5653	0.6637	
1062.995	133.5602	0.6644	
1063.995	133.5403	0.6644	
1064.995	133.5087	0.6656	
1065.995	133.4915	0.6656	
1066.995	133.4967	0.6662	
1067.995	133.4732	0.6662	
1068.995	133.4725	0.6669	
1069.995	133.4274	0.6662	
1070.995	133.4369	0.6662	
1071.995	133.4239	0.6662	
1072.995	133.3985	0.6662	
1073.995	133.3731	0.6669	
1074.995	133.3717	0.6669	
1075.995	133.3455	0.6675	
1076.995	133.3257	0.6675	
1077.995	133.3305	0.6675	
1078.995	133.2978	0.6681	
1079.995	133.3	0.6681	
1080.995	133.2925	0.6688	
1081.995	133.2527	0.6688	
1082.995	133.2298	0.6688	
1083.995	133.2286	0.6688	
1084.995	133.197	0.6688	
1085.995	133.1937	0.6688	
1086.995	133.1923	0.6694	
1087.995	133.1518	0.6694	
1088.995	133.1339	0.6694	
1089.995	133.1027	0.67	
1090.995	133.0925	0.67	
1091.995	133.0893	0.6706	
1092.995	133.0903	0.6706	
1093.995	133.0384	0.6706	
1094.995	133.0383	0.6712	
1095.995	133.0255	0.6712	
1096.995	133.0148	0.6712	
1097.995	133.0054	0.6712	
1098.995	132.9711	0.6712	
1099.995	132.954	0.6712	
1100.995	132.9438	0.6712	
1101.995	132.9048	0.6712	
1102.995	132.8708	0.6706	
1103.995	132.8688	0.6706	
1104.995	132.8526	0.6706	
1105.995	132.81	0.6706	
1106.995	132.8043	0.6706	
1107.995	132.7947	0.6706	
1108.995	132.763	0.6706	
1109.995	132.7487	0.6706	
1110.995	132.748	0.6706	
1111.995	132.722	0.6706	
1112.995	132.6844	0.6706	
1113.995	132.6758	0.6706	
1114.995	132.6536	0.67	
1115.995	132.6414	0.67	
1116.995	132.644	0.67	
1118.061	132.6204	0.6694	
1118.995	132.5708	0.6694	
1119.995	132.5527	0.6694	
1120.995	132.5502	0.6694	
1121.995	132.5255	0.6688	
1122.995	132.5251	0.6688	
1123.995	132.4998	0.6688	
1124.995	132.4872	0.6688	
1125.995	132.4734	0.6688	
1126.995	132.4365	0.6688	
1127.995	132.3985	0.6688	
1128.995	132.4144	0.6694	
1129.995	132.3943	0.6694	
1130.995	132.3604	0.6688	
1131.995	132.3331	0.6688	
1132.995	132.3162	0.6694	
1133.995	132.2688	0.6688	
1134.995	132.2885	0.6688	
1135.995	132.2556	0.6694	
1136.995	132.2157	0.6694	
1137.995	132.1878	0.6694	
1138.995	132.1756	0.6694	
1139.995	132.1428	0.6694	
1140.995	132.1582	0.67	
1141.995	132.1288	0.67	
1142.995	132.1136	0.67	
1143.995	132.0814	0.67	
1144.995	132.0683	0.67	
1145.995	132.015	0.67	
1146.995	132.0142	0.67	
1147.995	132.0083	0.67	
1148.995	131.9756	0.67	
1149.995	131.9574	0.6694	
1150.995	131.9325	0.6694	
1151.993	131.9256	0.6694	
1152.994	131.9029	0.67	
1153.995	131.8865	0.67	
1154.995	131.8626	0.67	
1155.994	131.8351	0.67	
1156.994	131.8229	0.67	
1157.994	131.7852	0.67	
1158.994	131.7824	0.67	
1159.994	131.7773	0.67	
1160.994	131.736	0.67	
1161.994	131.743	0.67	
1162.994	131.7105	0.67	
1163.994	131.6883	0.67	
1164.994	131.676	0.67	
1165.994	131.6592	0.6694	
1166.994	131.6441	0.6694	
1167.994	131.585	0.6694	
1168.994	131.5691	0.6694	
1169.994	131.5584	0.6694	
1170.994	131.5377	0.6694	
1171.994	131.5325	0.6694	
1172.994	131.517	0.6694	
1173.994	131.4808	0.6694	
1174.994	131.469	0.6694	
1175.994	131.4524	0.6694	
1176.994	131.4218	0.6694	
1177.994	131.3881	0.6694	
1178.994	131.3731	0.6694	
1179.994	131.3242	0.6694	
1180.994	131.3106	0.6694	
1181.994	131.3007	0.6694	
1182.994	131.2964	0.6694	
1183.994	131.265	0.6694	
1184.994	131.2421	0.6694	
1185.994	131.2057	0.67	
1186.994	131.2008	0.67	
1187.994	131.1608	0.67	
1188.994	131.1835	0.67	
1189.994	131.1383	0.67	
1190.994	131.1248	0.67	
1191.994	131.0948	0.67	
1192.994	131.0623	0.67	
1193.994	131.0282	0.67	
1194.994	131.0276	0.6706	
1195.994	131.0068	0.6706	
1196.994	130.9585	0.67	
1197.994	130.9517	0.67	
1198.994	130.9198	0.6694	
1199.994	130.9124	0.6694	
1200.994	130.9061	0.67	
1201.994	130.8781	0.67	
1202.994	130.8241	0.67	
1203.994	130.8055	0.6706	
1204.994	130.7818	0.6712	
1205.994	130.7535	0.6712	
1206.994	130.7488	0.6706	
1207.994	130.7376	0.6712	
1208.994	130.6888	0.6706	
1209.994	130.6661	0.6712	
1210.994	130.6482	0.6712	
1211.994	130.6353	0.6712	
1212.994	130.6171	0.6712	
1213.994	130.6048	0.6712	
1214.994	130.5574	0.6712	
1215.994	130.5334	0.6712	
1216.994	130.5121	0.6712	
1217.994	130.4615	0.6719	
1218.994	130.4377	0.6712	
1219.994	130.4381	0.6712	
1220.994	130.4366	0.6712	
1221.994	130.379	0.6712	
1222.994	130.3489	0.6712	
1223.994	130.3274	0.6712	
1224.994	130.3204	0.6712	
1225.994	130.3137	0.6712	
1226.994	130.2896	0.6712	
1227.994	130.2526	0.6712	
1228.994	130.2339	0.6712	
1229.994	130.1867	0.6712	
1230.994	130.1639	0.6712	
1231.994	130.1555	0.6706	
1232.994	130.1324	0.6706	
1233.994	130.0833	0.6706	
1234.994	130.0906	0.67	
1235.994	130.0659	0.6706	
1236.994	130.0198	0.6706	
1237.994	130.0146	0.6706	
1238.994	129.9734	0.6706	
1239.994	129.9456	0.6706	
1240.994	129.9191	0.6706	
1241.994	129.9017	0.6706	
1242.994	129.8888	0.6706	
1243.994	129.8514	0.67	
1244.994	129.8307	0.6706	
1245.994	129.8172	0.67	
1246.994	129.7894	0.67	
1247.994	129.7679	0.6706	
1248.994	129.7237	0.6712	
1249.994	129.7145	0.6712	
1250.994	129.7061	0.6712	
1251.994	129.6681	0.6712	
1252.994	129.6374	0.6712	
1253.994	129.6045	0.67	
1254.994	129.5826	0.6694	
1255.994	129.5652	0.6688	
1256.994	129.5424	0.6675	
1257.994	129.5177	0.6675	
1258.994	129.4781	0.6669	
1259.994	129.4525	0.6662	
1260.994	129.4353	0.6656	
1261.994	129.4066	0.6656	
1262.994	129.3716	0.6656	
1263.994	129.3647	0.665	
1264.994	129.3368	0.665	
1265.994	129.3063	0.665	
1266.994	129.2846	0.6644	
1267.994	129.2328	0.6644	
1268.994	129.2314	0.6637	
1269.994	129.2091	0.6631	
1270.994	129.1516	0.6625	
1271.994	129.1347	0.6612	
1272.994	129.1208	0.66	
1273.994	129.0756	0.6587	
1274.994	129.0679	0.6581	
1275.994	129.0463	0.6575	
1276.994	128.9986	0.6575	
1277.994	129.0075	0.6575	
1278.994	128.9561	0.6575	
1279.994	128.9554	0.6575	
1280.994	128.8932	0.6575	
1281.994	128.8988	0.6575	
1282.994	128.8477	0.6575	
1283.994	128.8074	0.6575	
1284.994	128.795	0.6575	
1285.994	128.7864	0.6575	
1286.994	128.7584	0.6575	
1287.994	128.717	0.6575	
1288.994	128.6831	0.6575	
1289.994	128.6493	0.6575	
1290.994	128.6441	0.6575	
1291.994	128.623	0.6575	
1292.994	128.6019	0.6575	
1293.994	128.569	0.6581	
1294.994	128.5388	0.6575	
1295.994	128.497	0.6581	
1296.994	128.4713	0.6581	
1297.994	128.4557	0.6581	
1298.994	128.4469	0.6581	
1299.994	128.4187	0.6581	
1300.994	128.4036	0.6581	
1301.994	128.3676	0.6581	
1302.994	128.3328	0.6587	
1303.994	128.313	0.6587	
1304.994	128.2854	0.6587	
1305.994	128.248	0.6594	
1306.994	128.2437	0.6594	
1307.994	128.186	0.6594	
1308.994	128.1598	0.6594	
1309.994	128.1282	0.6594	
1310.994	128.1149	0.6594	
1311.994	128.0971	0.6594	
1312.994	128.0703	0.6594	
1313.994	128.0243	0.6594	
1314.994	127.9764	0.6594	
1315.994	127.9621	0.6594	
1316.994	127.941	0.6594	
1317.994	127.9274	0.6594	
1318.994	127.9137	0.6587	
1319.994	127.8622	0.6587	
1320.994	127.8363	0.6581	
1321.994	127.8157	0.6581	
1322.994	127.7688	0.6581	
1323.994	127.7673	0.6581	
1324.994	127.7653	0.6587	
1325.994	127.7068	0.6587	
1326.994	127.6723	0.6587	
1327.994	127.6498	0.6587	
1328.994	127.6205	0.6581	
1329.994	127.6178	0.6581	
1330.994	127.6062	0.6581	
1331.994	127.546	0.6581	
1332.994	127.521	0.6581	
1333.994	127.4958	0.6581	
1334.994	127.4357	0.6581	
1335.994	127.4343	0.6581	
1336.994	127.437	0.6575	
1337.994	127.4006	0.6575	
1338.994	127.362	0.6575	
1339.994	127.3179	0.6575	
1340.994	127.2913	0.6569	
1341.994	127.2739	0.6569	
1342.994	127.2612	0.6569	
1343.994	127.226	0.6562	
1344.994	127.1843	0.6562	
1345.994	127.1581	0.6562	
1346.994	127.1523	0.6562	
1347.994	127.1096	0.6556	
1348.994	127.0859	0.6556	
1349.994	127.0634	0.6556	
1350.994	127.0376	0.6556	
1351.994	127.0105	0.6556	
1352.994	126.9763	0.6556	
1353.994	126.9592	0.6556	
1354.994	126.9173	0.6556	
1355.994	126.9336	0.6556	
1356.994	126.865	0.655	
1357.994	126.858	0.6544	
1358.994	126.8136	0.6544	
1359.994	126.7723	0.6538	
1360.994	126.7613	0.6538	
1361.994	126.7128	0.6538	
1362.994	126.6819	0.6531	
1363.994	126.6827	0.6531	
1364.994	126.6339	0.6525	
1365.994	126.5903	0.6525	
1366.994	126.5923	0.6525	
1367.994	126.5415	0.6519	
1368.994	126.5213	0.6519	
1369.994	126.4976	0.6513	
1370.994	126.4715	0.6513	
1371.994	126.4163	0.6513	
1372.994	126.4193	0.6506	
1373.994	126.3776	0.6506	
1374.994	126.3303	0.6506	
1375.994	126.3065	0.6506	
1376.994	126.3021	0.6506	
1377.994	126.27	0.65	
1378.994	126.2367	0.65	
1379.994	126.1946	0.65	
1380.994	126.1743	0.65	
1381.993	126.174	0.6494	
1382.994	126.1419	0.6494	
1383.994	126.116	0.6494	
1384.995	126.0757	0.6494	
1385.993	126.0714	0.6494	
1386.994	126.0282	0.6494	
1387.993	125.9758	0.6488	
1388.994	125.9845	0.6481	
1390.03	125.935	0.6481	
1390.993	125.9459	0.6481	
1391.994	125.9011	0.6481	
1392.995	125.8553	0.6475	
1393.983	125.8315	0.6469	
1394.994	125.8061	0.6469	
1395.994	125.7786	0.6463	
1396.994	125.7623	0.6469	
1397.994	125.7234	0.6463	
1398.994	125.6889	0.6456	
1399.994	125.6255	0.6456	
1400.994	125.6247	0.6456	
1401.994	125.5963	0.6456	
1402.994	125.583	0.645	
1403.994	125.549	0.645	
1404.994	125.5217	0.6444	
1405.994	125.4872	0.6438	
1406.994	125.451	0.6431	
1407.994	125.4594	0.6431	
1408.994	125.3828	0.6425	
1409.994	125.3869	0.6419	
1410.994	125.3632	0.6413	
1411.994	125.3316	0.6406	
1412.994	125.2908	0.6406	
1413.994	125.2353	0.64	
1414.994	125.2272	0.64	
1415.994	125.2295	0.6394	
1416.994	125.1871	0.6394	
1417.994	125.1605	0.6394	
1418.994	125.1062	0.6394	
1419.994	125.0755	0.6394	
1420.994	125.0521	0.6394	
1421.994	125.0441	0.6394	
1422.994	125.0197	0.6394	
1423.994	124.9752	0.6394	
1424.994	124.9359	0.6394	
1425.994	124.9072	0.6394	
1426.994	124.8942	0.6394	
1427.994	124.8677	0.6394	
1428.994	124.8581	0.6394	
1429.994	124.8077	0.6387	
1430.994	124.7665	0.6387	
1431.994	124.7379	0.6387	
1432.994	124.7165	0.6387	
1433.994	124.696	0.6381	
1434.994	124.668	0.6381	
1435.994	124.6274	0.6381	
1436.994	124.5987	0.6381	
1437.994	124.5642	0.6381	
1438.994	124.5394	0.6375	
1439.994	124.5127	0.6375	
1440.994	124.5012	0.6375	
1441.994	124.4647	0.6369	
1442.994	124.4163	0.6369	
1443.994	124.3852	0.6369	
1444.994	124.359	0.6363	
1445.994	124.3344	0.6363	
1446.994	124.3254	0.6363	
1447.994	124.2934	0.6363	
1448.994	124.2535	0.6363	
1449.994	124.2177	0.6363	
1450.994	124.2031	0.6363	
1451.994	124.1756	0.6363	
1452.994	124.1339	0.6363	
1453.994	124.1265	0.6363	
1454.994	124.0778	0.6369	
1455.994	124.0611	0.6363	
1456.994	124.0038	0.6369	
1457.994	123.986	0.6369	
1458.994	123.9548	0.6363	
1459.994	123.942	0.6369	
1460.994	123.8963	0.6369	
1461.994	123.8718	0.6369	
1462.994	123.8454	0.6369	
1463.994	123.8223	0.6369	
1464.994	123.7778	0.6363	
1465.994	123.7576	0.6363	
1466.994	123.713	0.6363	
1467.994	123.6915	0.6363	
1468.994	123.6763	0.6356	
1469.994	123.6514	0.6356	
1470.994	123.5958	0.6356	
1471.994	123.5916	0.635	
1472.994	123.5372	0.635	
1473.994	123.5327	0.6338	
1474.994	123.4813	0.6338	
1475.994	123.4302	0.6331	
1476.994	123.3867	0.6331	
1477.994	123.374	0.6325	
1478.994	123.2955	0.6325	
1479.994	123.3057	0.6325	
1480.994	123.2678	0.6325	
1481.994	123.2442	0.6325	
1482.994	123.2071	0.6325	
1483.994	123.1725	0.6319	
1484.994	123.1019	0.6319	
1485.994	123.1139	0.6319	
1486.995	123.0675	0.6319	
1487.995	123.0527	0.6319	
1488.995	122.9987	0.6313	
1489.995	123.0099	0.6306	
1490.995	122.962	0.63	
1491.995	122.8978	0.6294	
1492.995	122.896	0.6288	
1493.995	122.855	0.6281	
1494.995	122.8386	0.6275	
1495.995	122.8123	0.6269	
1496.995	122.7853	0.6269	
1497.995	122.7373	0.6262	
1498.995	122.729	0.6256	
1499.995	122.7251	0.6256	
1500.995	122.6817	0.625	
1501.995	122.6598	0.625	
1502.995	122.6165	0.6244	
1503.995	122.578	0.6244	
1504.995	122.5421	0.6238	
1505.995	122.5115	0.6231	
1506.995	122.5032	0.6225	
1507.995	122.467	0.6225	
1508.995	122.4105	0.6219	
1509.995	122.3977	0.6219	
1510.995	122.3549	0.6219	
1511.995	122.3308	0.6219	
1512.995	122.3196	0.6219	
1513.995	122.2963	0.6213	
1514.995	122.2399	0.6213	
1515.995	122.2114	0.6219	
1516.995	122.1646	0.6213	
1517.995	122.1521	0.6213	
1518.995	122.1299	0.6213	
1519.995	122.119	0.6213	
1520.995	122.0588	0.6213	
1521.995	122.0411	0.6206	
1522.995	122.0063	0.62	
1523.995	121.9667	0.62	
1524.995	121.9514	0.6194	
1525.995	121.9424	0.6194	
1526.995	121.8979	0.6187	
1527.995	121.8461	0.6187	
1528.995	121.8143	0.6187	
1529.995	121.8185	0.6181	
1530.995	121.768	0.6181	
1531.995	121.7696	0.6175	
1532.995	121.7021	0.6169	
1533.995	121.6879	0.6169	
1534.995	121.6472	0.6169	
1535.995	121.6211	0.6169	
1536.995	121.5543	0.6169	
1537.995	121.5849	0.6169	
1538.995	121.5343	0.6175	
1539.995	121.5103	0.6175	
1540.995	121.4549	0.6175	
1541.995	121.4341	0.6175	
1542.995	121.4212	0.6175	
1543.995	121.3917	0.6175	
1544.995	121.3625	0.6175	
1545.995	121.3344	0.6175	
1546.995	121.304	0.6169	
1547.995	121.2645	0.6169	
1548.995	121.2531	0.6169	
1549.995	121.229	0.6169	
1550.995	121.2177	0.6162	
1551.995	121.1513	0.6162	
1552.995	121.1267	0.6162	
1553.995	121.0895	0.6162	
1554.995	121.0596	0.6162	
1555.995	121.0466	0.6156	
1556.995	120.9893	0.6156	
1557.995	120.9703	0.6156	
1558.995	120.9214	0.6162	
1559.995	120.9017	0.6162	
1560.995	120.8767	0.6162	
1561.995	120.8513	0.6162	
1562.995	120.8243	0.6162	
1563.995	120.7881	0.6169	
1564.995	120.7729	0.6175	
1565.995	120.7486	0.6175	
1566.995	120.71	0.6175	
1567.995	120.6841	0.6175	
1568.995	120.6544	0.6175	
1569.995	120.59	0.6175	
1570.995	120.5684	0.6175	
1571.995	120.5614	0.6175	
1572.995	120.5312	0.6175	
1573.995	120.5098	0.6169	
1574.995	120.479	0.6169	
1575.995	120.4412	0.6162	
1576.995	120.4318	0.6156	
1577.995	120.3968	0.6156	
1578.995	120.378	0.6156	
1579.995	120.3503	0.615	
1580.995	120.3266	0.615	
1581.995	120.2542	0.6144	
1582.995	120.2534	0.6144	
1583.995	120.2419	0.6137	
1584.995	120.2066	0.6137	
1585.995	120.1768	0.6131	
1586.995	120.1314	0.6125	
1587.995	120.1025	0.6125	
1588.995	120.0738	0.6119	
1589.995	120.047	0.6119	
1590.995	120.0165	0.6112	
1591.995	119.9928	0.6119	
1592.995	119.9672	0.6119	
1593.995	119.9401	0.6119	
1594.995	119.8852	0.6119	
1595.995	119.8689	0.6112	
1596.995	119.8462	0.6112	
1597.995	119.835	0.6106	
1598.995	119.7906	0.6106	
1599.995	119.7361	0.6106	
1600.995	119.7054	0.6106	
1601.995	119.7095	0.6106	
1602.995	119.6729	0.6106	
1603.995	119.6404	0.6106	
1604.995	119.6129	0.6106	
1605.995	119.5688	0.6106	
1606.995	119.5542	0.61	
1607.995	119.5278	0.61	
1608.995	119.5056	0.6106	
1609.995	119.4723	0.6112	
1610.995	119.4393	0.6112	
1611.995	119.3817	0.6112	
1612.995	119.364	0.6112	
1613.995	119.3327	0.6106	
1614.995	119.3047	0.61	
1615.995	119.2653	0.6087	
1616.995	119.2535	0.6081	
1617.995	119.2176	0.6075	
1618.995	119.1889	0.6069	
1619.995	119.1498	0.6063	
1620.995	119.1327	0.6056	
1621.995	119.1025	0.6056	
1622.995	119.0765	0.6044	
1623.995	119.0382	0.6044	
1624.995	119.0018	0.6038	
1625.995	118.9778	0.6031	
1626.995	118.9539	0.6025	
1627.995	118.9289	0.6019	
1628.995	118.9127	0.6013	
1629.995	118.8691	0.6	
1630.995	118.8517	0.5994	
1631.995	118.7833	0.5994	
1632.995	118.7845	0.5988	
1633.995	118.7714	0.5981	
1634.995	118.7299	0.5975	
1635.995	118.6915	0.5975	
1636.995	118.6709	0.5969	
1637.995	118.6304	0.5969	
1638.995	118.6075	0.5969	
1639.995	118.5655	0.5962	
1640.995	118.5385	0.5962	
1641.995	118.5233	0.5962	
1642.995	118.498	0.5962	
1643.995	118.4454	0.5962	
1644.995	118.4237	0.5956	
1645.995	118.4043	0.5956	
1646.995	118.3995	0.5956	
1647.995	118.3407	0.5956	
1648.995	118.3136	0.595	
1649.995	118.2816	0.5944	
1650.995	118.2569	0.5944	
1651.995	118.211	0.5938	
1652.995	118.1883	0.5938	
1653.995	118.1391	0.5938	
1654.995	118.1441	0.5931	
1655.995	118.1129	0.5931	
1656.995	118.0911	0.5925	
1657.994	118.0557	0.5925	
1658.993	118.0117	0.5931	
1659.993	117.9939	0.5938	
1660.995	117.9491	0.5931	
1661.995	117.9403	0.5938	
1662.994	117.8964	0.5938	
1663.995	117.8611	0.5944	
1664.995	117.8196	0.5944	
1666.015	117.7949	0.5944	
1667.015	117.7719	0.5944	
1667.995	117.7662	0.5944	
1668.993	117.7062	0.5944	
1670.019	117.7004	0.595	
1670.995	117.6669	0.5944	
1671.995	117.6166	0.595	
1672.995	117.6017	0.595	
1673.995	117.5936	0.595	
1674.995	117.5508	0.595	
1675.995	117.5158	0.5944	
1676.995	117.4706	0.595	
1677.995	117.4444	0.5944	
1678.995	117.429	0.5944	
1679.995	117.4163	0.5944	
1680.995	117.3605	0.5944	
1681.995	117.3281	0.5944	
1682.9961	117.3091	0.5944	
1683.995	117.2793	0.5944	
1684.995	117.2769	0.595	
1685.995	117.1894	0.595	
1686.9961	117.1783	0.5956	
1687.995	117.185	0.5962	
1688.995	117.1285	0.5962	
1689.995	117.0955	0.5962	
1690.995	117.0839	0.5962	
1691.995	117.032	0.5956	
1692.9961	117.0297	0.595	
1693.995	117.0197	0.5944	
1694.995	116.9763	0.5938	
1695.995	116.9257	0.5938	
1696.995	116.899	0.5931	
1697.995	116.8622	0.5925	
1698.9961	116.8382	0.5919	
1699.9961	116.8108	0.5913	
1700.995	116.7855	0.5906	
1701.995	116.7394	0.59	
1702.995	116.7411	0.5894	
1703.995	116.6923	0.5881	
1704.995	116.6533	0.5875	
1705.9961	116.6303	0.5875	
1706.995	116.6016	0.5869	
1707.995	116.5706	0.5869	
1708.995	116.5568	0.5863	
1709.995	116.5138	0.5863	
1710.995	116.4753	0.5863	
1711.9961	116.4479	0.5856	
1712.9961	116.427	0.5856	
1713.995	116.3874	0.5856	
1714.995	116.347	0.5856	
1715.995	116.3489	0.5856	
1716.995	116.3015	0.5856	
1717.995	116.2746	0.5856	
1718.995	116.2441	0.5856	
1719.995	116.219	0.5856	
1720.995	116.1969	0.5856	
1721.995	116.1723	0.585	
1722.995	116.115	0.585	
1723.995	116.09	0.5844	
1724.9961	116.086	0.5838	
1725.995	116.0326	0.5838	
1726.995	115.9994	0.5831	
1727.995	115.9866	0.5825	
1728.995	115.9539	0.5825	
1729.995	115.9215	0.5819	
1730.995	115.8951	0.5819	
1731.995	115.8655	0.5813	
1732.995	115.8372	0.5806	
1733.995	115.826	0.58	
1734.995	115.7993	0.58	
1735.995	115.7525	0.5794	
1736.995	115.7318	0.5788	
1737.995	115.6948	0.5788	
1738.995	115.6749	0.5788	
1739.995	115.6513	0.5781	
1740.995	115.6313	0.5781	
1741.995	115.5955	0.5775	
1742.995	115.5503	0.5775	
1743.995	115.5378	0.5775	
1744.995	115.5157	0.5775	
1745.995	115.4745	0.5775	
1746.995	115.4455	0.5769	
1747.995	115.4129	0.5769	
1748.995	115.3658	0.5763	
1749.995	115.3524	0.5763	
1750.995	115.3294	0.5756	
1751.995	115.3177	0.575	
1752.995	115.2729	0.575	
1753.995	115.225	0.575	
1754.995	115.1806	0.575	
1755.995	115.1469	0.575	
1756.995	115.1321	0.575	
1757.995	115.1142	0.575	
1758.995	115.091	0.575	
1759.995	115.0551	0.575	
1760.995	115.0377	0.5744	
1761.995	115.022	0.5744	
1762.995	114.9734	0.5737	
1763.995	114.9389	0.5737	
1764.995	114.91	0.5737	
1765.995	114.865	0.5731	
1766.995	114.8454	0.5725	
1767.995	114.8289	0.5725	
1768.995	114.7935	0.5725	
1769.995	114.7762	0.5725	
1770.995	114.7776	0.5719	
1771.995	114.724	0.5719	
1772.995	114.6951	0.5725	
1773.995	114.6692	0.5725	
1774.995	114.6459	0.5719	
1775.995	114.63	0.5725	
1776.995	114.6104	0.5719	
1777.995	114.5629	0.5719	
1778.995	114.518	0.5712	
1779.995	114.4822	0.5712	
1780.995	114.4685	0.5712	
1781.995	114.4291	0.5712	
1782.995	114.4275	0.5712	
1783.995	114.3824	0.5706	
1784.995	114.348	0.5706	
1785.995	114.3234	0.5706	
1786.995	114.2779	0.57	
1787.995	114.2564	0.57	
1788.995	114.2423	0.5694	
1789.995	114.2123	0.5688	
1790.995	114.1818	0.5688	
1791.995	114.1602	0.5688	
1792.995	114.1098	0.5688	
1793.995	114.124	0.5688	
1794.995	114.0447	0.5688	
1795.995	114.0375	0.5688	
1796.995	113.9933	0.5688	
1797.995	113.9783	0.5688	
1798.995	113.9393	0.5694	
1799.995	113.9181	0.5688	
1800.995	113.8776	0.5688	
1801.995	113.8441	0.5688	
1802.995	113.8467	0.5681	
1803.995	113.8144	0.5681	
1804.995	113.7668	0.5681	
1805.995	113.7272	0.5681	
1806.995	113.7017	0.5681	
1807.995	113.6741	0.5681	
1808.995	113.6766	0.5681	
1809.995	113.6294	0.5675	
1810.995	113.5966	0.5675	
1811.995	113.5608	0.5675	
1812.995	113.5333	0.5675	
1813.995	113.488	0.5675	
1814.995	113.4871	0.5675	
1815.995	113.4416	0.5675	
1816.995	113.4066	0.5675	
1817.995	113.3855	0.5669	
1818.995	113.365	0.5675	
1819.995	113.35	0.5675	
1820.995	113.3139	0.5675	
1821.995	113.2741	0.5675	
1822.995	113.2527	0.5669	
1823.995	113.2128	0.5669	
1824.995	113.1868	0.5669	
1825.995	113.1747	0.5669	
1826.995	113.1303	0.5669	
1827.995	113.1009	0.5669	
1828.995	113.075	0.5669	
1829.995	113.0509	0.5669	
1830.995	112.9982	0.5663	
1831.995	112.9991	0.5663	
1832.995	112.9663	0.5663	
1833.995	112.9206	0.5663	
1834.995	112.8793	0.5663	
1835.995	112.8813	0.5656	
1836.995	112.8513	0.5656	
1837.995	112.8274	0.565	
1838.995	112.7982	0.565	
1839.995	112.7482	0.565	
1840.995	112.7359	0.5644	
1841.995	112.7207	0.5637	
1842.995	112.6835	0.5637	
1843.995	112.6427	0.5631	
1844.995	112.6305	0.5631	
1845.995	112.5583	0.5625	
1846.995	112.5479	0.5625	
1847.995	112.5186	0.5619	
1848.995	112.4965	0.5619	
1849.995	112.4727	0.5619	
1850.995	112.4369	0.5612	
1851.995	112.4109	0.5612	
1852.995	112.3812	0.5612	
1853.995	112.3796	0.5612	
1854.995	112.3246	0.5612	
1855.995	112.293	0.5606	
1856.995	112.27	0.5606	
1857.995	112.2187	0.5606	
1858.995	112.214	0.5606	
1859.995	112.1681	0.5606	
1860.995	112.1433	0.5606	
1861.995	112.1231	0.5606	
1862.995	112.1118	0.5606	
1863.995	112.0471	0.5606	
1864.995	112.0186	0.5606	
1865.995	111.9899	0.56	
1866.995	111.9514	0.56	
1867.995	111.9339	0.56	
1868.995	111.9194	0.5594	
1869.995	111.8694	0.56	
1870.995	111.8344	0.5594	
1871.995	111.8225	0.56	
1872.995	111.7742	0.5594	
1873.995	111.7661	0.5594	
1874.995	111.7504	0.5588	
1875.995	111.7001	0.5588	
1876.995	111.6692	0.5588	
1877.995	111.6462	0.5588	
1878.995	111.5939	0.5581	
1879.995	111.5517	0.5581	
1880.995	111.5705	0.5575	
1881.995	111.5166	0.5575	
1882.995	111.4981	0.5575	
1883.995	111.4654	0.5569	
1884.995	111.4332	0.5569	
1885.995	111.4062	0.5569	
1886.995	111.4016	0.5563	
1887.995	111.3577	0.5563	
1888.995	111.3419	0.5563	
1889.995	111.2937	0.5556	
1890.995	111.2719	0.5556	
1891.995	111.2307	0.555	
1892.995	111.2188	0.555	
1893.995	111.1762	0.5544	
1894.995	111.1503	0.555	
1895.995	111.1125	0.5544	
1896.995	111.0773	0.5538	
1897.995	111.0683	0.5531	
1898.995	111.0322	0.5531	
1899.995	110.9989	0.5531	
1900.995	110.9663	0.5525	
1901.995	110.942	0.5525	
1902.995	110.9118	0.5519	
1903.995	110.8875	0.5519	
1904.995	110.8664	0.5513	
1905.995	110.8358	0.5513	
1906.995	110.8104	0.5506	
1907.995	110.7702	0.55	
1908.995	110.7396	0.55	
1909.995	110.7123	0.55	
1910.995	110.6924	0.5494	
1911.995	110.6564	0.5494	
1912.995	110.615	0.5494	
1913.995	110.6073	0.5488	
1914.995	110.5733	0.5488	
1915.995	110.5138	0.5481	
1916.995	110.533	0.5475	
1917.995	110.4833	0.5475	
1918.995	110.461	0.5469	
1919.995	110.4439	0.5469	
1920.995	110.3887	0.5463	
1921.995	110.3719	0.5463	
1922.995	110.3455	0.5456	
1923.995	110.3209	0.5456	
1924.995	110.2585	0.5456	
1925.995	110.2528	0.5456	
1926.995	110.216	0.5456	
1927.995	110.2054	0.5456	
1928.995	110.188	0.545	
1929.995	110.1558	0.5444	
1930.995	110.128	0.5444	
1931.995	110.0919	0.5444	
1932.995	110.054	0.5438	
1933.995	110.0208	0.5438	
1934.995	110.0185	0.5431	
1935.995	109.9774	0.5431	
1936.995	109.9497	0.5431	
1937.995	109.9268	0.5425	
1938.995	109.8871	0.5425	
1939.995	109.8907	0.5425	
1940.995	109.8588	0.5419	
1941.995	109.8163	0.5419	
1942.995	109.7719	0.5412	
1943.995	109.7569	0.5412	
1944.995	109.7187	0.5412	
1945.995	109.6762	0.5412	
1946.995	109.671	0.5406	
1947.995	109.6407	0.5412	
1948.995	109.5905	0.5406	
1949.995	109.5603	0.5406	
1950.995	109.5378	0.5406	
1951.995	109.5346	0.5406	
1952.995	109.4947	0.5406	
1953.995	109.4799	0.5406	
1954.995	109.4261	0.54	
1955.995	109.4031	0.54	
1956.995	109.3773	0.54	
1957.995	109.35	0.54	
1958.995	109.3148	0.54	
1959.995	109.2996	0.54	
1960.995	109.2543	0.54	
1961.995	109.2131	0.5394	
1962.995	109.1861	0.5394	
1963.995	109.171	0.5394	
1964.995	109.1527	0.5394	
1965.995	109.14	0.5394	
1966.995	109.0963	0.5387	
1967.995	109.0847	0.5387	
1968.995	109.0563	0.5387	
1969.995	109.0345	0.5387	
1970.995	108.9799	0.5387	
1971.995	108.9958	0.5387	
1972.995	108.9406	0.5387	
1973.995	108.9083	0.5387	
1974.995	108.8748	0.5387	
1975.995	108.8721	0.5387	
1976.995	108.8181	0.5387	
1977.995	108.8213	0.5387	
1978.995	108.7833	0.5381	
1979.995	108.757	0.5381	
1980.995	108.7098	0.5375	
1981.995	108.6931	0.5369	
1982.995	108.6477	0.5362	
1983.995	108.633	0.5362	
1984.995	108.6024	0.5356	
1985.995	108.5845	0.535	
1986.995	108.5421	0.535	
1987.995	108.5191	0.5344	
1988.995	108.5305	0.5337	
1989.995	108.4796	0.5337	
1990.995	108.4626	0.5331	
1991.995	108.4007	0.5331	
1992.995	108.3868	0.5325	
1993.995	108.3647	0.5325	
1994.995	108.3334	0.5319	
1995.995	108.2946	0.5319	
1996.995	108.2884	0.5312	
1997.995	108.2472	0.5306	
1998.994	108.2081	0.5306	
1999.994	108.2027	0.5306	
2000.994	108.1447	0.53	
2001.994	108.1204	0.53	
2002.994	108.0793	0.53	
2003.994	108.0827	0.53	
2004.994	108.0478	0.5294	
2005.994	108.0161	0.5294	
2006.994	107.991	0.5294	
2007.994	107.9415	0.5294	
2008.994	107.9127	0.5294	
2009.994	107.946	0.5294	
2010.994	107.8879	0.5288	
2011.994	107.8448	0.5288	
2012.994	107.8112	0.5288	
2013.994	107.7982	0.5288	
2014.994	107.7585	0.5288	
2015.994	107.728	0.5288	
2016.994	107.6864	0.5288	
2017.994	107.674	0.5281	
2018.994	107.6473	0.5281	
2019.994	107.6308	0.5281	
2020.994	107.595	0.5281	
2021.994	107.5679	0.5281	
2022.994	107.5393	0.5281	
2023.994	107.4897	0.5275	
2024.994	107.4921	0.5275	
2025.994	107.4691	0.5275	
2026.994	107.4307	0.5275	
2027.994	107.4159	0.5275	
2028.994	107.3674	0.5281	
2029.994	107.3515	0.5281	
2030.994	107.3298	0.5288	
2031.994	107.2883	0.5294	
2032.994	107.2427	0.5294	
2033.994	107.2473	0.5294	
2034.994	107.1762	0.5294	
2035.994	107.1914	0.53	
2036.994	107.1528	0.5294	
2037.994	107.1306	0.5294	
2038.994	107.1098	0.53	
2039.994	107.0957	0.53	
2040.994	107.0598	0.5294	
2041.994	107.013	0.5294	
2042.994	107.0131	0.5294	
2043.994	106.9716	0.5294	
2044.994	106.9396	0.5294	
2045.994	106.8989	0.5294	
2046.994	106.87	0.5288	
2047.994	106.841	0.5288	
2048.9939	106.804	0.5288	
2049.9939	106.7875	0.5281	
2050.9939	106.7596	0.5281	
2051.9939	106.7405	0.5275	
2052.9939	106.7153	0.5275	
2053.9939	106.6837	0.5275	
2054.9939	106.6399	0.5269	
2055.9939	106.6232	0.5269	
2056.9939	106.6067	0.5263	
2057.9939	106.5777	0.5256	
2058.9939	106.5522	0.5256	
2059.9939	106.5244	0.5256	
2060.9939	106.4893	0.5256	
2061.9939	106.4267	0.525	
2062.9939	106.4282	0.5244	
2063.9939	106.4152	0.5244	
2064.9939	106.3734	0.5244	
2065.9939	106.3412	0.5238	
2066.9939	106.3128	0.5238	
2067.9939	106.2921	0.5238	
2068.9939	106.2637	0.5231	
2069.9939	106.2391	0.5231	
2070.9939	106.2194	0.5231	
2071.9939	106.1544	0.5225	
2072.9939	106.1466	0.5225	
2073.9939	106.1024	0.5225	
2074.9939	106.0716	0.5219	
2075.9939	106.0828	0.5219	
2076.9939	106.0491	0.5213	
2077.9939	105.9892	0.5213	
2078.9939	105.9727	0.5213	
2079.9939	105.9442	0.5206	
2080.9939	105.9073	0.5206	
2081.9939	105.9138	0.52	
2082.9939	105.8775	0.52	
2083.9939	105.8414	0.5194	
2084.9939	105.8028	0.5194	
2085.9939	105.7901	0.5194	
2086.9939	105.7325	0.5187	
2087.9939	105.7487	0.5194	
2088.9939	105.7051	0.5187	
2089.9939	105.6841	0.5187	
2090.9939	105.6612	0.5187	
2091.9939	105.6382	0.5187	
2092.9939	105.6045	0.5187	
2093.9939	105.5883	0.5187	
2094.9939	105.5693	0.5187	
2095.9939	105.5041	0.5187	
2096.9939	105.4764	0.5181	
2097.9939	105.4522	0.5181	
2098.9939	105.4086	0.5181	
2099.9939	105.3927	0.5181	
2100.9939	105.3942	0.5181	
2101.9939	105.3396	0.5175	
2102.9939	105.3055	0.5175	
2103.9939	105.2717	0.5175	
2104.9939	105.2408	0.5169	
2105.9939	105.2307	0.5169	
2106.9939	105.1941	0.5163	
2107.9939	105.199	0.5156	
2108.9939	105.1497	0.5156	
2109.9939	105.1332	0.515	
2110.9939	105.0911	0.5144	
2111.9939	105.0509	0.5138	
2112.9939	105.0442	0.5138	
2113.9939	105.0264	0.5131	
2114.9939	104.9826	0.5131	
2115.9939	104.953	0.5131	
2116.9939	104.9321	0.5125	
2117.9939	104.8893	0.5119	
2118.9939	104.8729	0.5113	
2119.9939	104.8507	0.5113	
2120.9939	104.8191	0.5106	
2121.9939	104.7947	0.5106	
2122.9939	104.77	0.51	
2123.9939	104.718	0.51	
2124.9939	104.727	0.51	
2125.9939	104.6822	0.5094	
2126.9939	104.6393	0.5094	
2127.9939	104.6222	0.5094	
2128.9939	104.6102	0.5094	
2129.9939	104.5816	0.5094	
2130.9939	104.5527	0.5094	
2131.9939	104.524	0.5088	
2132.9939	104.4832	0.5094	
2133.9939	104.4833	0.5094	
2134.9939	104.4553	0.5088	
2135.9939	104.4348	0.5088	
2136.9939	104.3909	0.5081	
2137.9939	104.3859	0.5081	
2138.9939	104.3397	0.5075	
2139.9939	104.3054	0.5069	
2140.9939	104.2957	0.5069	
2141.9939	104.2702	0.5063	
2142.9939	104.2576	0.5063	
2143.9939	104.2285	0.5063	
2144.9939	104.1948	0.5056	
2145.9939	104.1508	0.5056	
2146.9939	104.1482	0.5056	
2147.9939	104.1271	0.5056	
2148.9939	104.0861	0.5056	
2149.9939	104.0434	0.5056	
2150.9939	104.0152	0.5056	
2151.9939	103.9764	0.5056	
2152.9939	103.9657	0.505	
2153.9939	103.9336	0.5056	
2154.9939	103.9287	0.5056	
2155.9939	103.8874	0.5056	
2156.9939	103.8589	0.505	
2157.9939	103.8114	0.505	
2158.9939	103.794	0.505	
2159.9939	103.7729	0.5044	
2160.9939	103.7775	0.5044	
2161.9939	103.7418	0.5044	
2162.9939	103.7055	0.5044	
2163.9939	103.664	0.5038	
2164.9939	103.6239	0.5038	
2165.9939	103.6133	0.5031	
2166.9939	103.599	0.5031	
2167.9939	103.5805	0.5031	
2168.9939	103.5464	0.5031	
2169.9939	103.4873	0.5031	
2170.9939	103.4674	0.5025	
2171.9939	103.4501	0.5025	
2172.9939	103.4561	0.5031	
2173.9939	103.4266	0.5031	
2174.9939	103.4131	0.5038	
2175.9939	103.3588	0.5038	
2176.9939	103.3372	0.5038	
2177.9939	103.2992	0.5038	
2178.9939	103.285	0.5038	
2179.9939	103.2832	0.5031	
2180.9939	103.24	0.5031	
2181.9939	103.2013	0.5031	
2182.9939	103.1774	0.5025	
2183.9939	103.1493	0.5025	
2184.9939	103.1454	0.5019	
2185.9939	103.106	0.5013	
2186.9939	103.1011	0.5006	
2187.9939	103.0488	0.5006	
2188.9939	103.0113	0.5006	
2189.9939	103.0067	0.5	
2190.9939	102.9527	0.5	
2191.9939	102.9577	0.4994	
2192.9939	102.9447	0.5	
2193.9939	102.8764	0.4994	
2194.9939	102.8662	0.4994	
2195.9939	102.8367	0.4994	
2196.9939	102.8105	0.4994	
2197.9939	102.8083	0.4988	
2198.9939	102.7851	0.4988	
2199.9939	102.7702	0.4988	
2200.9939	102.7206	0.4981	
2201.9939	102.6812	0.4981	
2202.9939	102.6581	0.4981	
2203.9939	102.6096	0.4981	
2204.9939	102.5988	0.4981	
2205.9939	102.5714	0.4969	
2206.9939	102.541	0.4963	
2207.9939	102.5394	0.495	
2208.9939	102.4804	0.495	
2209.9939	102.4688	0.4944	
2210.9939	102.4521	0.4938	
2211.9939	102.4405	0.4938	
2212.9939	102.3904	0.4931	
2213.9939	102.3621	0.4925	
2214.9939	102.3087	0.4919	
2215.9939	102.3083	0.4919	
2216.9939	102.2992	0.4913	
2217.9939	102.2493	0.4906	
2218.9939	102.2156	0.4906	
2219.9939	102.2032	0.49	
2220.9939	102.1747	0.4894	
2221.9939	102.1338	0.4888	
2222.9939	102.1222	0.4888	
2223.9939	102.0862	0.4888	
2224.9939	102.0582	0.4888	
2225.9939	102.0379	0.4881	
2226.9939	102.0285	0.4881	
2227.9939	101.9679	0.4881	
2228.9939	101.9726	0.4881	
2229.9939	101.9452	0.4875	
2230.9939	101.881	0.4875	
2231.9939	101.8819	0.4869	
2232.9939	101.8528	0.4869	
2233.9939	101.8358	0.4869	
2234.9939	101.8064	0.4862	
2235.9939	101.7649	0.4869	
2236.9939	101.744	0.4869	
2237.9939	101.7303	0.4869	
2238.9939	101.7051	0.4869	
2239.9939	101.6713	0.4862	
2240.9939	101.6364	0.4862	
2241.9939	101.6167	0.4869	
2242.9939	101.5626	0.4869	
2243.9939	101.5489	0.4869	
2244.9939	101.5446	0.4869	
2245.9939	101.5259	0.4869	
2246.9939	101.504	0.4869	
2247.9939	101.4571	0.4869	
2248.9939	101.4161	0.4862	
2249.9939	101.3968	0.4862	
2250.9939	101.3987	0.4862	
2251.9939	101.376	0.4862	
2252.9939	101.3604	0.4856	
2253.9939	101.3323	0.4856	
2254.9939	101.2821	0.4862	
2255.9939	101.257	0.4862	
2256.9939	101.2107	0.4856	
2257.9939	101.2057	0.4862	
2258.9939	101.1783	0.4862	
2259.9939	101.1539	0.4856	
2260.9939	101.1252	0.4856	
2261.9939	101.0803	0.4856	
2262.9939	101.0627	0.4856	
2263.9949	101.0587	0.485	
2264.9949	101.0324	0.485	
2265.9949	101.0145	0.4844	
2266.9949	100.9667	0.4844	
2267.9949	100.9344	0.4837	
2268.9949	100.9073	0.4837	
2269.9949	100.851	0.4844	
2270.9949	100.8645	0.4862	
2271.9949	100.846	0.4888	
2272.9949	100.7967	0.49	
2273.9949	100.7787	0.4913	
2274.9949	100.7488	0.4913	
2275.9949	100.7172	0.4919	
2276.9949	100.7126	0.4913	
2277.9949	100.6925	0.4906	
2278.9949	100.6237	0.4906	
2279.9949	100.5844	0.4888	
2280.9949	100.5332	0.4875	
2281.9949	100.4784	0.4862	
2282.9949	100.4803	0.485	
2283.9949	100.4598	0.4837	
2284.9949	100.4207	0.4825	
2285.9949	100.3961	0.4819	
2286.9949	100.3541	0.4812	
2287.9949	100.3271	0.48	
2288.9949	100.3145	0.48	
2289.9949	100.3072	0.48	
2290.9949	100.269	0.48	
2291.9949	100.2442	0.4794	
2292.9949	100.1956	0.4787	
2293.9949	100.1702	0.4787	
2294.9949	100.1554	0.4781	
2295.9949	100.1369	0.4781	
2296.9949	100.115	0.4775	
2297.9949	100.0792	0.4775	
2298.9949	100.0613	0.4769	
2299.9949	100.0123	0.4762	
2300.9949	99.9904	0.4756	
2301.9949	99.9833	0.475	
2302.9949	99.9741	0.4744	
2303.9949	99.9132	0.4744	
2304.9949	99.9097	0.4737	
2305.9949	99.8683	0.4737	
2306.9949	99.8511	0.4731	
2307.9949	99.8497	0.4731	
2308.9949	99.8046	0.4725	
2309.9949	99.7559	0.4725	
2310.9949	99.7574	0.4725	
2311.9949	99.7307	0.4719	
2312.9949	99.6999	0.4719	
2313.9949	99.6701	0.4719	
2314.9949	99.6537	0.4713	
2315.9949	99.6225	0.4713	
2316.9949	99.5934	0.4706	
2317.9949	99.5846	0.4706	
2318.9949	99.5413	0.4706	
2319.9949	99.5452	0.4706	
2320.9949	99.4967	0.47	
2321.9949	99.4566	0.47	
2322.9949	99.4405	0.47	
2323.9949	99.4336	0.4694	
2324.9949	99.3959	0.4694	
2325.9949	99.3886	0.4694	
2326.9949	99.3474	0.4694	
2327.9949	99.3113	0.4688	
2328.9949	99.3039	0.4688	
2329.9949	99.2582	0.4688	
2330.9949	99.2366	0.4688	
2331.9949	99.2056	0.4681	
2332.9949	99.2035	0.4681	
2333.9949	99.149	0.4681	
2334.9949	99.1333	0.4675	
2335.9949	99.1021	0.4675	
2336.9949	99.0997	0.4675	
2337.9949	99.0721	0.4675	
2338.9949	99.0457	0.4675	
2339.9949	99.0119	0.4669	
2340.9949	98.998	0.4675	
2341.9949	98.9632	0.4669	
2342.9949	98.9395	0.4669	
2343.9949	98.9247	0.4669	
2344.9949	98.9023	0.4669	
2345.9949	98.8674	0.4669	
2346.9949	98.8368	0.4669	
2347.9949	98.7982	0.4663	
2348.9949	98.7945	0.4663	
2349.9949	98.7758	0.4669	
2350.9949	98.7591	0.4675	
2351.9949	98.6956	0.4681	
2352.9949	98.6914	0.4688	
2353.9949	98.6674	0.4688	
2354.9949	98.652	0.4694	
2355.9949	98.6263	0.4694	
2356.9949	98.6042	0.4694	
2357.9949	98.5711	0.4694	
2358.9949	98.5543	0.4694	
2359.9949	98.5117	0.4694	
2360.9949	98.4982	0.4694	
2361.9949	98.4812	0.4694	
2362.9949	98.4639	0.4694	
2363.9949	98.439	0.4694	
2364.9949	98.395	0.4681	
2365.9949	98.3738	0.4675	
2366.9949	98.3466	0.4669	
2367.9949	98.3284	0.4669	
2368.9949	98.3209	0.4663	
2369.9949	98.2891	0.4663	
2370.9949	98.2358	0.465	
2371.9949	98.2081	0.465	
2372.9949	98.1742	0.465	
2373.9949	98.1833	0.4644	
2374.9949	98.1686	0.4644	
2375.9949	98.1189	0.4637	
2376.9949	98.0999	0.4631	
2377.9949	98.0657	0.4631	
2378.9949	98.0452	0.4625	
2379.9949	98.0358	0.4625	
2380.9949	98.0275	0.4625	
2381.9949	97.9984	0.4625	
2382.9949	97.9706	0.4619	
2383.9949	97.9119	0.4619	
2384.9949	97.8934	0.4619	
2385.9949	97.8522	0.4619	
2386.9949	97.8414	0.4612	
2387.9949	97.8378	0.4612	
2388.9949	97.8015	0.4612	
2389.9949	97.7852	0.4612	
2390.9949	97.7669	0.4606	
2391.9949	97.7413	0.4606	
2392.9949	97.7344	0.4606	
2393.9949	97.7047	0.4606	
2394.9949	97.6781	0.4606	
2395.9949	97.6656	0.46	
2396.9949	97.6269	0.46	
2397.9949	97.6075	0.46	
2398.9949	97.5819	0.46	
2399.9949	97.5397	0.46	
2400.9949	97.5355	0.4594	
2401.9949	97.4964	0.4594	
2402.9949	97.4936	0.4588	
2403.9949	97.45	0.4588	
2404.9949	97.4293	0.4588	
2405.9949	97.4104	0.4581	
2406.9949	97.4185	0.4581	
2407.9949	97.3616	0.4581	
2408.9949	97.3371	0.4575	
2409.9949	97.3035	0.4575	
2410.9949	97.2869	0.4569	
2411.9949	97.2732	0.4563	
2412.9949	97.2349	0.4563	
2413.9949	97.22	0.4556	
2414.9949	97.2024	0.4556	
2415.9949	97.1691	0.455	
2416.9949	97.1486	0.455	
2417.9949	97.1245	0.455	
2418.9949	97.1055	0.4544	
2419.9949	97.084	0.4544	
2420.9949	97.0338	0.455	
2421.9949	97.0383	0.4544	
2422.9949	96.99	0.455	
2423.9949	96.9811	0.455	
2424.9949	96.9515	0.455	
2425.9949	96.8967	0.455	
2426.9949	96.9077	0.455	
2427.9949	96.889	0.4544	
2428.9949	96.8507	0.4544	
2429.9949	96.8369	0.4544	
2430.9949	96.8115	0.4537	
2431.9949	96.7784	0.4531	
2432.9949	96.753	0.4525	
2433.9949	96.7518	0.4525	
2434.9949	96.71	0.4525	
2435.9949	96.6776	0.4519	
2436.9949	96.6906	0.4519	
2437.9949	96.627	0.4513	
2438.9949	96.5938	0.4519	
2439.9949	96.6074	0.4513	
2440.9949	96.5679	0.4513	
2441.9949	96.5417	0.4513	
2442.9949	96.5325	0.4513	
2443.9949	96.4595	0.4513	
2444.9949	96.4507	0.4506	
2445.9949	96.4485	0.4506	
2446.9949	96.4127	0.4506	
2447.9949	96.4071	0.45	
2448.9949	96.3692	0.45	
2449.9949	96.3361	0.4494	
2450.9949	96.2944	0.4494	
2451.9949	96.3073	0.4494	
2452.9949	96.2749	0.4494	
2453.9949	96.2607	0.4488	
2454.9949	96.2659	0.4488	
2455.9949	96.2056	0.4488	
2456.9949	96.1692	0.4488	
2457.9949	96.1543	0.4488	
2458.9949	96.1417	0.4481	
2459.9949	96.1136	0.4481	
2460.9949	96.1127	0.4481	
2461.9949	96.0486	0.4481	
2462.9949	96.0344	0.4481	
2463.9949	96.0074	0.4481	
2464.9949	95.9896	0.4475	
2465.9949	95.9693	0.4475	
2466.9949	95.9778	0.4475	
2467.9949	95.9306	0.4469	
2468.9949	95.8937	0.4469	
2469.9949	95.8561	0.4469	
2470.9949	95.8612	0.4469	
2471.9949	95.813	0.4463	
2472.9949	95.8326	0.4456	
2473.9949	95.7915	0.445	
2474.9949	95.7529	0.445	
2475.9949	95.7383	0.4444	
2476.9949	95.713	0.4444	
2477.9949	95.6795	0.4438	
2478.9949	95.6746	0.4438	
2479.9949	95.6487	0.4431	
2480.9949	95.6207	0.4431	
2481.9949	95.5864	0.4431	
2482.9949	95.5393	0.4425	
2483.9949	95.5527	0.4425	
2484.9949	95.5141	0.4425	
2485.9949	95.4849	0.4425	
2486.9949	95.4593	0.4419	
2487.9949	95.4254	0.4412	
2488.9949	95.4182	0.4412	
2489.9949	95.4007	0.4406	
2490.9949	95.3879	0.44	
2491.9949	95.3482	0.44	
2492.9949	95.3055	0.4394	
2493.9949	95.3062	0.4394	
2494.9949	95.2693	0.4394	
2495.9949	95.2458	0.4394	
2496.9949	95.2374	0.4388	
2497.9949	95.2274	0.4388	
2498.9949	95.1892	0.4388	
2499.9949	95.159	0.4388	
2500.9949	95.1216	0.4394	
2501.9949	95.0941	0.44	
2502.9949	95.0957	0.44	
2503.9949	95.0562	0.4406	
2504.9949	95.0535	0.4412	
2505.9949	95.0157	0.4419	
2506.9949	94.9901	0.4419	
2507.9949	94.9562	0.4419	
2508.9949	94.9321	0.4419	
2509.9949	94.9007	0.4438	
2510.9939	94.8951	0.4444	
2511.9939	94.8546	0.445	
2512.9939	94.8554	0.4456	
2513.9939	94.8221	0.4463	
2514.9939	94.7949	0.4469	
2515.9939	94.7835	0.4469	
2516.9939	94.7357	0.4469	
2517.9939	94.7266	0.4469	
2518.9939	94.7169	0.4481	
2519.9939	94.6827	0.4488	
2520.9939	94.6602	0.4475	
2521.9939	94.634	0.4469	
2522.9939	94.5901	0.4463	
2523.9939	94.5943	0.4456	
2524.9939	94.5652	0.445	
2525.9939	94.5551	0.445	
2526.9939	94.5352	0.445	
2527.9939	94.5185	0.4444	
2528.9939	94.4549	0.4444	
2529.9939	94.4555	0.4444	
2530.9939	94.4277	0.4444	
2531.9939	94.4098	0.4438	
2532.9939	94.3913	0.4438	
2533.9939	94.3858	0.4438	
2534.9939	94.3393	0.4438	
2535.9939	94.3239	0.4444	
2536.9939	94.3115	0.4438	
2537.9939	94.28	0.4438	
2538.9939	94.2666	0.4431	
2539.9939	94.2365	0.4431	
2540.9939	94.2084	0.4419	
2541.9939	94.1598	0.4406	
2542.9939	94.1542	0.44	
2543.9939	94.124	0.4388	
2544.9939	94.1132	0.4388	
2545.9939	94.0851	0.4381	
2546.9939	94.0574	0.4381	
2547.9939	94.0308	0.4375	
2548.9939	94.0109	0.4375	
2549.9939	94.0019	0.4369	
2550.9939	93.988	0.4363	
2551.9939	93.9518	0.4356	
2552.9939	93.9066	0.435	
2553.9939	93.8927	0.4344	
2554.9939	93.8696	0.4338	
2555.9939	93.8443	0.4331	
2556.9939	93.8208	0.4325	
2557.9939	93.793	0.4319	
2558.9939	93.7791	0.4312	
2559.9939	93.7477	0.4306	
2560.9939	93.7104	0.4306	
2561.9939	93.6979	0.43	
2562.9939	93.7033	0.43	
2563.9939	93.6789	0.43	
2564.9939	93.6361	0.4294	
2565.9939	93.6161	0.4294	
2566.9939	93.5725	0.4294	
2567.9939	93.5709	0.4294	
2568.9939	93.5482	0.4294	
2569.9939	93.529	0.43	
2570.9939	93.5053	0.43	
2571.9939	93.4785	0.43	
2572.9939	93.4409	0.43	
2573.9939	93.4129	0.43	
2574.9939	93.404	0.43	
2575.9939	93.4016	0.43	
2576.9939	93.3718	0.4338	
2577.9939	93.3358	0.4338	
2578.9939	93.2925	0.4338	
2579.9939	93.3068	0.4325	
2580.9939	93.2685	0.4319	
2581.9939	93.2394	0.4312	
2582.9939	93.223	0.4312	
2583.9939	93.1902	0.4306	
2584.9939	93.1638	0.43	
2585.9939	93.1485	0.4287	
2586.9939	93.1365	0.4281	
2587.9939	93.1035	0.4269	
2588.9939	93.1105	0.4256	
2589.9939	93.0768	0.4244	
2590.9939	93.0407	0.4238	
2591.9939	93.0092	0.4231	
2592.9939	93.0011	0.4225	
2593.9939	92.9869	0.4219	
2594.9939	92.9559	0.4213	
2595.9939	92.9437	0.4213	
2596.9939	92.9276	0.4206	
2597.9939	92.8818	0.4206	
2598.9939	92.8666	0.4206	
2599.9939	92.8385	0.4206	
2600.9939	92.7974	0.4213	
2601.9939	92.8032	0.4213	
2602.9939	92.7668	0.4219	
2603.9939	92.7498	0.4219	
2604.9939	92.7095	0.4194	
2605.9939	92.6926	0.4175	
2606.9939	92.678	0.415	
2607.9939	92.6497	0.4138	
2608.9939	92.6387	0.4119	
2609.9939	92.6054	0.4113	
2610.9939	92.5838	0.41	
2611.9939	92.554	0.4094	
2612.9939	92.5392	0.4087	
2613.9939	92.5115	0.4081	
2614.9939	92.5287	0.4075	
2615.9939	92.4644	0.4075	
2616.9939	92.4504	0.4075	
2617.9939	92.4427	0.4069	
2618.9939	92.4003	0.4075	
2619.9939	92.3802	0.4075	
2620.9939	92.3774	0.4075	
2621.9939	92.3296	0.4081	
2622.9939	92.3185	0.4081	
2623.9939	92.285	0.4087	
2624.9939	92.269	0.4087	
2625.9939	92.2358	0.4087	
2626.9939	92.2483	0.4081	
2627.9939	92.2124	0.4087	
2628.9939	92.1826	0.4087	
2629.9939	92.1628	0.4087	
2630.9939	92.1533	0.4094	
2631.9939	92.1566	0.4094	
2632.9939	92.113	0.4094	
2633.9939	92.0703	0.4094	
2634.9939	92.0643	0.4094	
2635.9939	92.0417	0.4094	
2636.9939	92.0003	0.4106	
2637.9939	91.9858	0.4138	
2638.9939	91.9639	0.4125	
2639.9939	91.9389	0.4119	
2640.9939	91.934	0.4119	
2641.9939	91.9142	0.4113	
2642.9939	91.8672	0.4113	
2643.9939	91.8567	0.4106	
2644.9939	91.8491	0.4106	
2645.9939	91.8113	0.4106	
2646.9939	91.8076	0.41	
2647.9939	91.773	0.41	
2648.9939	91.7267	0.41	
2649.9939	91.7425	0.4094	
2650.9939	91.699	0.4094	
2651.9939	91.6769	0.4087	
2652.9939	91.6421	0.4087	
2653.9939	91.6314	0.4087	
2654.9939	91.5988	0.4081	
2655.9939	91.601	0.4081	
2656.9929	91.5747	0.4081	
2657.9929	91.5746	0.4081	
2658.9929	91.5281	0.4081	
2659.9929	91.5092	0.4081	
2660.9929	91.5059	0.4081	
2661.9929	91.4403	0.4087	
2662.9939	91.4428	0.4081	
2663.9929	91.3808	0.4081	
2664.9939	91.3602	0.4081	
2665.9929	91.3521	0.4075	
2666.9929	91.3434	0.4069	
2667.9929	91.312	0.4069	
2668.9929	91.3061	0.4062	
2669.9939	91.259	0.4062	
2670.9929	91.2636	0.4081	
2671.9939	91.2258	0.4075	
2672.9929	91.2288	0.4056	
2673.9929	91.1938	0.4044	
2674.9929	91.1667	0.4038	
2675.9929	91.1339	0.4031	
2676.9929	91.0911	0.4025	
2677.9939	91.0777	0.4019	
2678.9929	91.0468	0.4013	
2679.9929	91.0477	0.4006	
2680.9929	91.0431	0.4	
2681.9939	90.9922	0.3994	
2682.9929	90.9512	0.3988	
2683.9929	90.9448	0.3988	
2684.9929	90.9062	0.3981	
2685.9929	90.8921	0.3981	
2686.9929	90.8718	0.3981	
2687.9929	90.8355	0.3981	
2688.9929	90.8015	0.3981	
2689.9929	90.7857	0.3988	
2690.9939	90.7767	0.3988	
2691.9929	90.78	0.3988	
2692.9929	90.717	0.3994	
2693.9939	90.7017	0.3994	
2694.9929	90.6609	0.3994	
2695.9939	90.666	0.4	
2696.9929	90.6506	0.3994	
2697.9929	90.631	0.4	
2698.9929	90.6107	0.4	
2699.9929	90.5771	0.4	
2700.9929	90.5392	0.4	
2701.9929	90.5129	0.4	
2702.9929	90.5063	0.4006	
2703.9939	90.4826	0.4006	
2704.9929	90.4744	0.4006	
2705.9939	90.444	0.4006	
2706.9939	90.4032	0.4006	
2707.9929	90.3834	0.4006	
2708.9929	90.3806	0.4006	
2709.9929	90.357	0.4006	
2710.9939	90.3349	0.4006	
2711.9939	90.3201	0.4006	
2712.9939	90.2766	0.4013	
2713.9929	90.2612	0.4006	
2714.9929	90.2091	0.4019	
2715.9929	90.2065	0.4019	
2716.9939	90.1956	0.4013	
2717.9929	90.2098	0.4013	
2718.9939	90.1694	0.4013	
2719.9929	90.1287	0.4025	
2720.9929	90.0973	0.4025	
2721.9929	90.0999	0.4031	
2722.9939	90.0856	0.4038	
2723.9929	90.0351	0.4038	
2724.9939	90.0152	0.4031	
2725.9939	89.9925	0.4025	
2726.9929	89.9575	0.4019	
2727.9939	89.9536	0.4013	
2728.9929	89.922	0.4013	
2729.9929	89.911	0.4006	
2730.9929	89.8891	0.4	
2731.9929	89.873	0.3994	
2732.9929	89.8387	0.3994	
2733.9929	89.8132	0.3988	
2734.9929	89.7969	0.3981	
2735.9929	89.7795	0.3981	
2736.9929	89.7605	0.3975	
2737.9929	89.7474	0.3975	
2738.9929	89.7042	0.3975	
2739.9929	89.6702	0.3975	
2740.9929	89.6709	0.3969	
2741.9929	89.6265	0.3969	
2742.9929	89.6167	0.3969	
2743.9929	89.588	0.3969	
2744.9929	89.589	0.3969	
2745.9929	89.5596	0.3969	
2746.9929	89.537	0.3969	
2747.9929	89.4982	0.3969	
2748.9929	89.498	0.3969	
2749.9929	89.4756	0.3969	
2750.9929	89.4289	0.3963	
2751.9929	89.4534	0.3963	
2752.9929	89.4167	0.3963	
2753.9929	89.3498	0.3963	
2754.9929	89.3119	0.3963	
2755.9929	89.323	0.3956	
2756.9929	89.2617	0.3956	
2757.9929	89.2273	0.3956	
2758.9929	89.1956	0.3956	
2759.9929	89.1624	0.3956	
2760.9929	89.1301	0.395	
2761.9929	89.1357	0.395	
2762.9929	89.0908	0.3956	
2763.9929	89.0682	0.3956	
2764.9929	89.0406	0.395	
2765.9929	89.014	0.395	
2766.9929	88.9841	0.395	
2767.9929	88.9596	0.3956	
2768.9929	88.9309	0.3956	
2769.9929	88.9148	0.395	
2770.9929	88.8935	0.3944	
2771.9929	88.8765	0.3944	
2772.9929	88.8514	0.3944	
2773.9929	88.8088	0.3938	
2774.9929	88.7911	0.3938	
2775.9929	88.7501	0.3938	
2776.9929	88.7596	0.3931	
2777.9929	88.7341	0.3931	
2778.9929	88.7218	0.3931	
2779.9929	88.6882	0.3925	
2780.9929	88.6569	0.3925	
2781.9929	88.6132	0.3925	
2782.9929	88.6065	0.3919	
2783.9929	88.5772	0.3913	
2784.9929	88.5588	0.3913	
2785.9929	88.5294	0.3906	
2786.9929	88.4934	0.3906	
2787.9929	88.471	0.3906	
2788.9929	88.4635	0.3906	
2789.9929	88.4324	0.39	
2790.9929	88.4049	0.39	
2791.9929	88.3813	0.39	
2792.9929	88.3582	0.3894	
2793.9929	88.3444	0.3894	
2794.9929	88.3142	0.3887	
2795.9929	88.3068	0.3887	
2796.9929	88.2731	0.3881	
2797.9929	88.2587	0.3881	
2798.9929	88.2284	0.3881	
2799.9929	88.2072	0.3875	
2800.9929	88.1867	0.3875	
2801.9929	88.1529	0.3875	
2802.9929	88.1556	0.3875	
2803.9929	88.1359	0.3869	
2804.9929	88.0948	0.3869	
2805.9929	88.0688	0.3869	
2806.9929	88.0325	0.3869	
2807.9929	88.0123	0.3869	
2808.9929	88.0252	0.3869	
2809.9929	88.0005	0.3869	
2810.9929	87.956	0.3869	
2811.9929	87.9226	0.3869	
2812.9929	87.9234	0.3869	
2813.9929	87.8928	0.3869	
2814.9929	87.8539	0.3869	
2815.9929	87.8691	0.3869	
2816.9929	87.8338	0.3869	
2817.9929	87.7995	0.3869	
2818.9929	87.7714	0.3862	
2819.9929	87.7652	0.3869	
2820.9929	87.7176	0.3869	
2821.9929	87.7286	0.3869	
2822.9929	87.7034	0.3875	
2823.9929	87.6662	0.3881	
2824.9929	87.6449	0.3887	
2825.9929	87.6326	0.3894	
2826.9929	87.5689	0.3887	
2827.9929	87.5899	0.3881	
2828.9929	87.5659	0.3875	
2829.9929	87.5277	0.3875	
2830.9929	87.514	0.3869	
2831.9929	87.5012	0.3862	
2832.9929	87.4695	0.3862	
2833.9929	87.4617	0.3862	
2834.9929	87.4357	0.3856	
2835.9929	87.4221	0.3856	
2836.9929	87.3985	0.3856	
2837.9929	87.364	0.385	
2838.9929	87.3665	0.3844	
2839.9929	87.3298	0.3856	
2840.9929	87.3159	0.3894	
2841.9929	87.2847	0.3919	
2842.9929	87.2514	0.3925	
2843.9929	87.2417	0.3913	
2844.9929	87.2396	0.39	
2845.9929	87.2104	0.39	
2846.9929	87.1777	0.3887	
2847.9929	87.1618	0.3881	
2848.9929	87.1316	0.3881	
2849.9929	87.1118	0.3875	
2850.9929	87.09	0.3862	
2851.9929	87.0678	0.3862	
2852.9929	87.0541	0.3856	
2853.9929	87.0201	0.385	
2854.9929	87.0072	0.3844	
2855.9929	86.9748	0.3838	
2856.9929	86.94	0.3831	
2857.9929	86.9191	0.3831	
2858.9929	86.913	0.3825	
2859.9929	86.8764	0.3825	
2860.9929	86.8762	0.3819	
2861.9929	86.8578	0.3819	
2862.9929	86.8111	0.3812	
2863.9929	86.8311	0.3812	
2864.9929	86.7856	0.3806	
2865.9929	86.7679	0.3806	
2866.9929	86.7434	0.38	
2867.9929	86.7164	0.3794	
2868.9929	86.6944	0.3794	
2869.9929	86.6907	0.3787	
2870.9929	86.653	0.3787	
2871.9929	86.6307	0.3781	
2872.9929	86.6029	0.3781	
2873.9929	86.5731	0.3775	
2874.9929	86.5738	0.3769	
2875.9929	86.5667	0.3769	
2876.9929	86.554	0.3762	
2877.9929	86.5099	0.3762	
2878.9929	86.5152	0.3756	
2879.9929	86.4829	0.3756	
2880.9929	86.4591	0.375	
2881.9929	86.46	0.375	
2882.9929	86.4327	0.3744	
2883.9929	86.3964	0.3744	
2884.9929	86.3843	0.3738	
2885.967	86.359	0.3731	
2886.9939	86.3385	0.3731	
2887.9968	86.3343	0.3725	
2888.957	86.2998	0.3719	
2889.9929	86.2737	0.3719	
2890.9929	86.2534	0.3719	
2891.9929	86.243	0.3719	
2892.9939	86.2059	0.3719	
2893.9939	86.2173	0.3713	
2894.9929	86.1658	0.3713	
2895.9929	86.146	0.3713	
2896.9939	86.1292	0.3706	
2897.9939	86.1097	0.3706	
